#                                                           
#  **    **    **     ****     ****  ******     *******     
# //**  **    ****   /**/**   **/** /*////**   **/////**    
#  //****    **//**  /**//** ** /** /*   /**  **     //**   
#   //**    **  //** /** //***  /** /******  /**      /**   
#    /**   **********/**  //*   /** /*//// **/**      /**   
#    /**  /**//////**/**   /    /** /*    /**//**     **    
#    /**  /**     /**/**        /** /*******  //*******     
#    //   //      // //         //  ///////    ///////      
#                                                           
#        Version 4.3.0 Revision 15624 Hash 7ed12fb          
#                      MPI+SLK Build                        
#                http://www.yambo-code.org                  
#
# Joint density of states @ Q(1) [q->0 direction] :0.1000E-4  0.000     0.000   
#
# - Energies      are Teter 93(XC)
# - The Green`s function is Retarded -
#
#   BSK|Identifier              :5179
#      |Dimension               :49
#      |Bands                   :1 - 50
#      |Exchange           [res]: yes
#      |Correlation        [res]: no
#      |Kernel`s coupling       : no
#      |Exchange           [cpl]: no
#      |Correlation        [cpl]: no
#      |W interaction is bare   : no
#      |ALDA kernel in R-space  : no
#      |RL vectors    [exchange]:4067
#      |E/h energy range    [ev]:-1.000000 - -1.000000
#      |Coupling range     [o/o]: 100.0000 -  100.0000
#
#    E/ev[1]      jdos-Im[2]   jdos-Re[3]   jdoso-Im[4]  jdoso-Re[5]  jdos`-Im[6]  jdos`-Re[7]
#
    0.000000     0.000000     1.093917     0.000000     1.108381
   0.1502E-1    0.1126E-4     1.094       0.1175E-4     1.108   
   0.3003E-1    0.2251E-4     1.094       0.2349E-4     1.108   
   0.4505E-1    0.3377E-4     1.094       0.3524E-4     1.108   
   0.6006E-1    0.4502E-4     1.094       0.4698E-4     1.108   
   0.7508E-1    0.5628E-4     1.094       0.5873E-4     1.108   
   0.9009E-1    0.6753E-4     1.094       0.7048E-4     1.108   
   0.1051       0.7879E-4     1.094       0.8223E-4     1.108   
   0.1201       0.9005E-4     1.094       0.9397E-4     1.108   
   0.1351       0.1013E-3     1.094       0.1057E-3     1.108   
   0.1502       0.1126E-3     1.094       0.1175E-3     1.108   
   0.1652       0.1238E-3     1.094       0.1292E-3     1.108   
   0.1802       0.1351E-3     1.094       0.1410E-3     1.109   
   0.1952       0.1464E-3     1.094       0.1527E-3     1.109   
   0.2102       0.1576E-3     1.094       0.1645E-3     1.109   
   0.2252       0.1689E-3     1.094       0.1763E-3     1.109   
   0.2402       0.1802E-3     1.094       0.1880E-3     1.109   
   0.2553       0.1914E-3     1.094       0.1998E-3     1.109   
   0.2703       0.2027E-3     1.094       0.2115E-3     1.109   
   0.2853       0.2140E-3     1.094       0.2233E-3     1.109   
   0.3003       0.2253E-3     1.094       0.2351E-3     1.109   
   0.3153       0.2365E-3     1.094       0.2469E-3     1.109   
   0.3303       0.2478E-3     1.094       0.2586E-3     1.109   
   0.3453       0.2591E-3     1.094       0.2704E-3     1.109   
   0.3604       0.2704E-3     1.094       0.2822E-3     1.109   
   0.3754       0.2817E-3     1.094       0.2940E-3     1.109   
   0.3904       0.2930E-3     1.094       0.3058E-3     1.109   
   0.4054       0.3043E-3     1.095       0.3176E-3     1.109   
   0.4204       0.3156E-3     1.095       0.3294E-3     1.109   
   0.4354       0.3269E-3     1.095       0.3412E-3     1.109   
   0.4505       0.3382E-3     1.095       0.3530E-3     1.109   
   0.4655       0.3495E-3     1.095       0.3648E-3     1.109   
   0.4805       0.3608E-3     1.095       0.3766E-3     1.109   
   0.4955       0.3721E-3     1.095       0.3884E-3     1.109   
   0.5105       0.3835E-3     1.095       0.4002E-3     1.109   
   0.5255       0.3948E-3     1.095       0.4120E-3     1.109   
   0.5405       0.4061E-3     1.095       0.4239E-3     1.110   
   0.5556       0.4175E-3     1.095       0.4357E-3     1.110   
   0.5706       0.4288E-3     1.095       0.4475E-3     1.110   
   0.5856       0.4401E-3     1.095       0.4594E-3     1.110   
   0.6006       0.4515E-3     1.095       0.4712E-3     1.110   
   0.6156       0.4629E-3     1.095       0.4831E-3     1.110   
   0.6306       0.4742E-3     1.095       0.4949E-3     1.110   
   0.6456       0.4856E-3     1.095       0.5068E-3     1.110   
   0.6607       0.4970E-3     1.096       0.5187E-3     1.110   
   0.6757       0.5083E-3     1.096       0.5306E-3     1.110   
   0.6907       0.5197E-3     1.096       0.5424E-3     1.110   
   0.7057       0.5311E-3     1.096       0.5543E-3     1.110   
   0.7207       0.5425E-3     1.096       0.5662E-3     1.110   
   0.7357       0.5539E-3     1.096       0.5781E-3     1.111   
   0.7508       0.5653E-3     1.096       0.5900E-3     1.111   
   0.7658       0.5767E-3     1.096       0.6019E-3     1.111   
   0.7808       0.5881E-3     1.096       0.6139E-3     1.111   
   0.7958       0.5995E-3     1.096       0.6258E-3     1.111   
   0.8108       0.6110E-3     1.096       0.6377E-3     1.111   
   0.8258       0.6224E-3     1.096       0.6497E-3     1.111   
   0.8408       0.6339E-3     1.097       0.6616E-3     1.111   
   0.8559       0.6453E-3     1.097       0.6736E-3     1.111   
   0.8709       0.6568E-3     1.097       0.6855E-3     1.111   
   0.8859       0.6682E-3     1.097       0.6975E-3     1.111   
   0.9009       0.6797E-3     1.097       0.7095E-3     1.112   
   0.9159       0.6912E-3     1.097       0.7215E-3     1.112   
   0.9309       0.7027E-3     1.097       0.7335E-3     1.112   
   0.9459       0.7142E-3     1.097       0.7455E-3     1.112   
   0.9610       0.7257E-3     1.097       0.7575E-3     1.112   
   0.9760       0.7372E-3     1.097       0.7695E-3     1.112   
   0.9910       0.7487E-3     1.098       0.7816E-3     1.112   
    1.006       0.7602E-3     1.098       0.7936E-3     1.112   
    1.021       0.7718E-3     1.098       0.8057E-3     1.112   
    1.036       0.7833E-3     1.098       0.8177E-3     1.113   
    1.051       0.7949E-3     1.098       0.8298E-3     1.113   
    1.066       0.8064E-3     1.098       0.8419E-3     1.113   
    1.081       0.8180E-3     1.098       0.8539E-3     1.113   
    1.096       0.8296E-3     1.098       0.8660E-3     1.113   
    1.111       0.8412E-3     1.099       0.8782E-3     1.113   
    1.126       0.8528E-3     1.099       0.8903E-3     1.113   
    1.141       0.8644E-3     1.099       0.9024E-3     1.114   
    1.156       0.8760E-3     1.099       0.9145E-3     1.114   
    1.171       0.8876E-3     1.099       0.9267E-3     1.114   
    1.186       0.8993E-3     1.099       0.9388E-3     1.114   
    1.201       0.9109E-3     1.099       0.9510E-3     1.114   
    1.216       0.9226E-3     1.099       0.9632E-3     1.114   
    1.231       0.9342E-3     1.100       0.9754E-3     1.114   
    1.246       0.9459E-3     1.100       0.9876E-3     1.114   
    1.261       0.9576E-3     1.100       0.9998E-3     1.115   
    1.276       0.9693E-3     1.100       0.1012E-2     1.115   
    1.291       0.9810E-3     1.100       0.1024E-2     1.115   
    1.306       0.9927E-3     1.100       0.1037E-2     1.115   
    1.321       0.1004E-2     1.101       0.1049E-2     1.115   
    1.336       0.1016E-2     1.101       0.1061E-2     1.115   
    1.351       0.1028E-2     1.101       0.1073E-2     1.116   
    1.366       0.1040E-2     1.101       0.1086E-2     1.116   
    1.381       0.1052E-2     1.101       0.1098E-2     1.116   
    1.396       0.1063E-2     1.101       0.1110E-2     1.116   
    1.411       0.1075E-2     1.101       0.1123E-2     1.116   
    1.426       0.1087E-2     1.102       0.1135E-2     1.116   
    1.441       0.1099E-2     1.102       0.1147E-2     1.117   
    1.456       0.1111E-2     1.102       0.1160E-2     1.117   
    1.471       0.1122E-2     1.102       0.1172E-2     1.117   
    1.486       0.1134E-2     1.102       0.1184E-2     1.117   
    1.502       0.1146E-2     1.102       0.1197E-2     1.117   
    1.517       0.1158E-2     1.103       0.1209E-2     1.117   
    1.532       0.1170E-2     1.103       0.1222E-2     1.118   
    1.547       0.1182E-2     1.103       0.1234E-2     1.118   
    1.562       0.1194E-2     1.103       0.1247E-2     1.118   
    1.577       0.1206E-2     1.103       0.1259E-2     1.118   
    1.592       0.1218E-2     1.104       0.1272E-2     1.118   
    1.607       0.1230E-2     1.104       0.1284E-2     1.119   
    1.622       0.1242E-2     1.104       0.1297E-2     1.119   
    1.637       0.1254E-2     1.104       0.1309E-2     1.119   
    1.652       0.1266E-2     1.104       0.1322E-2     1.119   
    1.667       0.1278E-2     1.104       0.1334E-2     1.119   
    1.682       0.1290E-2     1.105       0.1347E-2     1.120   
    1.697       0.1302E-2     1.105       0.1360E-2     1.120   
    1.712       0.1314E-2     1.105       0.1372E-2     1.120   
    1.727       0.1326E-2     1.105       0.1385E-2     1.120   
    1.742       0.1338E-2     1.105       0.1398E-2     1.120   
    1.757       0.1350E-2     1.106       0.1410E-2     1.121   
    1.772       0.1362E-2     1.106       0.1423E-2     1.121   
    1.787       0.1374E-2     1.106       0.1436E-2     1.121   
    1.802       0.1387E-2     1.106       0.1448E-2     1.121   
    1.817       0.1399E-2     1.106       0.1461E-2     1.121   
    1.832       0.1411E-2     1.107       0.1474E-2     1.122   
    1.847       0.1423E-2     1.107       0.1487E-2     1.122   
    1.862       0.1435E-2     1.107       0.1499E-2     1.122   
    1.877       0.1448E-2     1.107       0.1512E-2     1.122   
    1.892       0.1460E-2     1.108       0.1525E-2     1.123   
    1.907       0.1472E-2     1.108       0.1538E-2     1.123   
    1.922       0.1484E-2     1.108       0.1551E-2     1.123   
    1.937       0.1497E-2     1.108       0.1564E-2     1.123   
    1.952       0.1509E-2     1.108       0.1577E-2     1.124   
    1.967       0.1521E-2     1.109       0.1590E-2     1.124   
    1.982       0.1534E-2     1.109       0.1602E-2     1.124   
    1.997       0.1546E-2     1.109       0.1615E-2     1.124   
    2.012       0.1559E-2     1.109       0.1628E-2     1.124   
    2.027       0.1571E-2     1.110       0.1641E-2     1.125   
    2.042       0.1583E-2     1.110       0.1654E-2     1.125   
    2.057       0.1596E-2     1.110       0.1667E-2     1.125   
    2.072       0.1608E-2     1.110       0.1681E-2     1.125   
    2.087       0.1621E-2     1.111       0.1694E-2     1.126   
    2.102       0.1633E-2     1.111       0.1707E-2     1.126   
    2.117       0.1646E-2     1.111       0.1720E-2     1.126   
    2.132       0.1658E-2     1.111       0.1733E-2     1.127   
    2.147       0.1671E-2     1.112       0.1746E-2     1.127   
    2.162       0.1684E-2     1.112       0.1759E-2     1.127   
    2.177       0.1696E-2     1.112       0.1773E-2     1.127   
    2.192       0.1709E-2     1.112       0.1786E-2     1.128   
    2.207       0.1721E-2     1.113       0.1799E-2     1.128   
    2.222       0.1734E-2     1.113       0.1812E-2     1.128   
    2.237       0.1747E-2     1.113       0.1826E-2     1.128   
    2.252       0.1759E-2     1.113       0.1839E-2     1.129   
    2.267       0.1772E-2     1.114       0.1852E-2     1.129   
    2.282       0.1785E-2     1.114       0.1866E-2     1.129   
    2.297       0.1798E-2     1.114       0.1879E-2     1.129   
    2.312       0.1810E-2     1.114       0.1892E-2     1.130   
    2.327       0.1823E-2     1.115       0.1906E-2     1.130   
    2.342       0.1836E-2     1.115       0.1919E-2     1.130   
    2.357       0.1849E-2     1.115       0.1933E-2     1.131   
    2.372       0.1862E-2     1.115       0.1946E-2     1.131   
    2.387       0.1875E-2     1.116       0.1960E-2     1.131   
    2.402       0.1888E-2     1.116       0.1973E-2     1.132   
    2.417       0.1901E-2     1.116       0.1987E-2     1.132   
    2.432       0.1914E-2     1.117       0.2000E-2     1.132   
    2.447       0.1927E-2     1.117       0.2014E-2     1.132   
    2.462       0.1940E-2     1.117       0.2028E-2     1.133   
    2.477       0.1953E-2     1.117       0.2041E-2     1.133   
    2.492       0.1966E-2     1.118       0.2055E-2     1.133   
    2.508       0.1979E-2     1.118       0.2069E-2     1.134   
    2.523       0.1992E-2     1.118       0.2083E-2     1.134   
    2.538       0.2005E-2     1.119       0.2096E-2     1.134   
    2.553       0.2018E-2     1.119       0.2110E-2     1.135   
    2.568       0.2031E-2     1.119       0.2124E-2     1.135   
    2.583       0.2044E-2     1.120       0.2138E-2     1.135   
    2.598       0.2058E-2     1.120       0.2152E-2     1.136   
    2.613       0.2071E-2     1.120       0.2166E-2     1.136   
    2.628       0.2084E-2     1.121       0.2180E-2     1.136   
    2.643       0.2098E-2     1.121       0.2193E-2     1.137   
    2.658       0.2111E-2     1.121       0.2207E-2     1.137   
    2.673       0.2124E-2     1.121       0.2221E-2     1.137   
    2.688       0.2138E-2     1.122       0.2236E-2     1.138   
    2.703       0.2151E-2     1.122       0.2250E-2     1.138   
    2.718       0.2164E-2     1.122       0.2264E-2     1.138   
    2.733       0.2178E-2     1.123       0.2278E-2     1.139   
    2.748       0.2191E-2     1.123       0.2292E-2     1.139   
    2.763       0.2205E-2     1.123       0.2306E-2     1.139   
    2.778       0.2218E-2     1.124       0.2320E-2     1.140   
    2.793       0.2232E-2     1.124       0.2335E-2     1.140   
    2.808       0.2246E-2     1.124       0.2349E-2     1.140   
    2.823       0.2259E-2     1.125       0.2363E-2     1.141   
    2.838       0.2273E-2     1.125       0.2378E-2     1.141   
    2.853       0.2286E-2     1.125       0.2392E-2     1.141   
    2.868       0.2300E-2     1.126       0.2406E-2     1.142   
    2.883       0.2314E-2     1.126       0.2421E-2     1.142   
    2.898       0.2328E-2     1.126       0.2435E-2     1.142   
    2.913       0.2341E-2     1.127       0.2450E-2     1.143   
    2.928       0.2355E-2     1.127       0.2464E-2     1.143   
    2.943       0.2369E-2     1.128       0.2479E-2     1.144   
    2.958       0.2383E-2     1.128       0.2493E-2     1.144   
    2.973       0.2397E-2     1.128       0.2508E-2     1.144   
    2.988       0.2411E-2     1.129       0.2523E-2     1.145   
    3.003       0.2425E-2     1.129       0.2537E-2     1.145   
    3.018       0.2439E-2     1.129       0.2552E-2     1.145   
    3.033       0.2453E-2     1.130       0.2567E-2     1.146   
    3.048       0.2467E-2     1.130       0.2582E-2     1.146   
    3.063       0.2481E-2     1.130       0.2596E-2     1.147   
    3.078       0.2495E-2     1.131       0.2611E-2     1.147   
    3.093       0.2509E-2     1.131       0.2626E-2     1.147   
    3.108       0.2523E-2     1.132       0.2641E-2     1.148   
    3.123       0.2538E-2     1.132       0.2656E-2     1.148   
    3.138       0.2552E-2     1.132       0.2671E-2     1.149   
    3.153       0.2566E-2     1.133       0.2686E-2     1.149   
    3.168       0.2580E-2     1.133       0.2701E-2     1.149   
    3.183       0.2595E-2     1.134       0.2716E-2     1.150   
    3.198       0.2609E-2     1.134       0.2731E-2     1.150   
    3.213       0.2623E-2     1.134       0.2746E-2     1.151   
    3.228       0.2638E-2     1.135       0.2762E-2     1.151   
    3.243       0.2652E-2     1.135       0.2777E-2     1.151   
    3.258       0.2667E-2     1.135       0.2792E-2     1.152   
    3.273       0.2681E-2     1.136       0.2807E-2     1.152   
    3.288       0.2696E-2     1.136       0.2823E-2     1.153   
    3.303       0.2711E-2     1.137       0.2838E-2     1.153   
    3.318       0.2725E-2     1.137       0.2854E-2     1.154   
    3.333       0.2740E-2     1.138       0.2869E-2     1.154   
    3.348       0.2755E-2     1.138       0.2885E-2     1.154   
    3.363       0.2769E-2     1.138       0.2900E-2     1.155   
    3.378       0.2784E-2     1.139       0.2916E-2     1.155   
    3.393       0.2799E-2     1.139       0.2931E-2     1.156   
    3.408       0.2814E-2     1.140       0.2947E-2     1.156   
    3.423       0.2829E-2     1.140       0.2963E-2     1.157   
    3.438       0.2844E-2     1.140       0.2978E-2     1.157   
    3.453       0.2859E-2     1.141       0.2994E-2     1.157   
    3.468       0.2874E-2     1.141       0.3010E-2     1.158   
    3.483       0.2889E-2     1.142       0.3026E-2     1.158   
    3.498       0.2904E-2     1.142       0.3042E-2     1.159   
    3.514       0.2919E-2     1.143       0.3058E-2     1.159   
    3.529       0.2934E-2     1.143       0.3074E-2     1.160   
    3.544       0.2949E-2     1.143       0.3090E-2     1.160   
    3.559       0.2965E-2     1.144       0.3106E-2     1.161   
    3.574       0.2980E-2     1.144       0.3122E-2     1.161   
    3.589       0.2995E-2     1.145       0.3138E-2     1.162   
    3.604       0.3010E-2     1.145       0.3154E-2     1.162   
    3.619       0.3026E-2     1.146       0.3171E-2     1.163   
    3.634       0.3041E-2     1.146       0.3187E-2     1.163   
    3.649       0.3057E-2     1.147       0.3203E-2     1.164   
    3.664       0.3072E-2     1.147       0.3220E-2     1.164   
    3.679       0.3088E-2     1.148       0.3236E-2     1.164   
    3.694       0.3103E-2     1.148       0.3253E-2     1.165   
    3.709       0.3119E-2     1.148       0.3269E-2     1.165   
    3.724       0.3135E-2     1.149       0.3286E-2     1.166   
    3.739       0.3151E-2     1.149       0.3302E-2     1.166   
    3.754       0.3166E-2     1.150       0.3319E-2     1.167   
    3.769       0.3182E-2     1.150       0.3336E-2     1.167   
    3.784       0.3198E-2     1.151       0.3352E-2     1.168   
    3.799       0.3214E-2     1.151       0.3369E-2     1.168   
    3.814       0.3230E-2     1.152       0.3386E-2     1.169   
    3.829       0.3246E-2     1.152       0.3403E-2     1.169   
    3.844       0.3262E-2     1.153       0.3420E-2     1.170   
    3.859       0.3278E-2     1.153       0.3437E-2     1.170   
    3.874       0.3294E-2     1.154       0.3454E-2     1.171   
    3.889       0.3310E-2     1.154       0.3471E-2     1.172   
    3.904       0.3326E-2     1.155       0.3488E-2     1.172   
    3.919       0.3343E-2     1.155       0.3505E-2     1.173   
    3.934       0.3359E-2     1.156       0.3523E-2     1.173   
    3.949       0.3375E-2     1.156       0.3540E-2     1.174   
    3.964       0.3392E-2     1.157       0.3557E-2     1.174   
    3.979       0.3408E-2     1.157       0.3575E-2     1.175   
    3.994       0.3425E-2     1.158       0.3592E-2     1.175   
    4.009       0.3441E-2     1.158       0.3610E-2     1.176   
    4.024       0.3458E-2     1.159       0.3627E-2     1.176   
    4.039       0.3474E-2     1.159       0.3645E-2     1.177   
    4.054       0.3491E-2     1.160       0.3662E-2     1.177   
    4.069       0.3508E-2     1.160       0.3680E-2     1.178   
    4.084       0.3525E-2     1.161       0.3698E-2     1.179   
    4.099       0.3541E-2     1.161       0.3716E-2     1.179   
    4.114       0.3558E-2     1.162       0.3734E-2     1.180   
    4.129       0.3575E-2     1.163       0.3752E-2     1.180   
    4.144       0.3592E-2     1.163       0.3770E-2     1.181   
    4.159       0.3609E-2     1.164       0.3788E-2     1.181   
    4.174       0.3626E-2     1.164       0.3806E-2     1.182   
    4.189       0.3643E-2     1.165       0.3824E-2     1.182   
    4.204       0.3661E-2     1.165       0.3842E-2     1.183   
    4.219       0.3678E-2     1.166       0.3860E-2     1.184   
    4.234       0.3695E-2     1.166       0.3879E-2     1.184   
