#   __   __     _        __  __       ____      U  ___  u   
#   \ \ / / U  /"\  U u |" \/ "| u U | __") u    \/"_ \/    
#    \ V /   \/ _ \/   \| |\/| |/   \|  _ \/     | | | |    
#   U_|"|_u  / ___ \    | |  | |     | |_) | .-,_| |_| |    
#     |_|   /_/   \_\   |_|  |_|     |____/   \_)-\___/     
# .-,//|(_   \\    >>  <<,-,,-.     _|| \\_        \\       
#  \_) (__) (__)  (__)  (./  \.)   (__) (__)      (__)      
#                                                           
#               Version 3.2.4 Revision 788                  
#                http://www.yambo-code.org                  
#
# Polarizability ( -<<X>> ) [volume @ Q(1) [q->0 direction]0.5774E-5 0.5774E-5 0.5774E-5
#
#
# - Energies      are Perdew & Wang (xc)
# - Wavefunctions are Perdew & Wang (xc)
#
# - The Green`s function is resonant -
# - Using the Length Gauge -
# - [r,Vnl] *is* included -
#
#   BSK|Identifier              :9966
#      |Dimension               :390
#      |Bands                   :10 - 50
#      |Exchange           [res]: yes
#      |Correlation        [res]: no
#      |Kernel`s coupling       : no
#      |Exchange           [cpl]: no
#      |W interaction is bare   : no
#      |Correlation        [cpl]: no
#      |ALDA kernel in R-space  : yes
#      |RL vectors    [exchange]:1511
#      |E/h energy range    [ev]:-1.000000 - -1.000000
#      |Coupling range     [o/o]: 100.0000 -  100.0000
#
#  E/ev[1]    alpha /Im[2alpha /Re[3alpha0/Im[4alpha0/Re[5]
#
  3.000     0.1763E-1   59.15     0.5524E-1   116.2   
    3.0100     0.9353    59.2199     2.8722   116.5538
    3.0200     0.9567    58.8769     2.9820   115.6013
    3.0300     0.9625    58.7838     3.0283   115.4239
    3.0401     0.9674    58.7436     3.0692   115.4085
    3.0501     0.9720    58.7327     3.1078   115.4814
    3.0601     0.9765    58.7339     3.1456   115.6021
    3.0701     0.9807    58.7600     3.1826   115.7675
    3.0801     0.9851    58.7749     3.2201   115.9428
    3.0901     0.9893    58.8051     3.2575   116.1442
    3.1001     0.9936    58.8429     3.2950   116.3656
    3.1101     0.9978    58.8815     3.3329   116.5996
    3.1202     1.0021    58.9147     3.3717   116.8339
    3.1302     1.0064    58.9587     3.4105   117.0890
    3.1402     1.0107    59.0064     3.4500   117.3521
    3.1502     1.0149    59.0557     3.4899   117.6262
    3.1602     1.0193    59.0975     3.5309   117.8956
    3.1702     1.0237    59.1495     3.5722   118.1839
    3.1802     1.0280    59.2043     3.6141   118.4793
    3.1902     1.0325    59.2493     3.6571   118.7731
    3.2003     1.0368    59.3155     3.7002   119.0896
    3.2103     1.0412    59.3740     3.7444   119.4053
    3.2203     1.0458    59.4216     3.7897   119.7177
    3.2303     1.0503    59.4816     3.8355   120.0463
    3.2403     1.0548    59.5418     3.8822   120.3787
    3.2503     1.0593    59.6039     3.9297   120.7199
    3.2603     1.0639    59.6652     3.9783   121.0642
    3.2703     1.0685    59.7289     4.0277   121.4165
    3.2804     1.0733    59.7851     4.0784   121.7679
    3.2904     1.0779    59.8500     4.1297   122.1335
    3.3004     1.0827    59.9142     4.1822   122.5027
    3.3104     1.0874    59.9821     4.2357   122.8802
    3.3204     1.0923    60.0381     4.2907   123.2538
    3.3304     1.0970    60.1158     4.3461   123.6515
    3.3404     1.1019    60.1823     4.4030   124.0456
    3.3504     1.1068    60.2524     4.4612   124.4473
    3.3605     1.1117    60.3222     4.5206   124.8539
    3.3705     1.1167    60.3911     4.5813   125.2678
    3.3805     1.1218    60.4517     4.6437   125.6812
    3.3905     1.1269    60.5234     4.7072   126.1083
    3.4005     1.1319    60.5969     4.7718   126.5454
    3.4105     1.1370    60.6793     4.8378   126.9939
    3.4205     1.1423    60.7422     4.9058   127.4364
    3.4305     1.1475    60.8165     4.9753   127.8904
    3.4406     1.1527    60.8916     5.0461   128.3556
    3.4506     1.1581    60.9573     5.1192   128.8159
    3.4606     1.1634    61.0426     5.1931   129.3038
    3.4706     1.1688    61.1178     5.2693   129.7868
    3.4806     1.1742    61.1949     5.3472   130.2819
    3.4906     1.1796    61.2828     5.4266   130.7909
    3.5006     1.1853    61.3516     5.5088   131.2932
    3.5106     1.1908    61.4308     5.5927   131.8113
    3.5207     1.1965    61.5093     5.6786   132.3381
    3.5307     1.2021    61.5899     5.7667   132.8734
    3.5407     1.2078    61.6788     5.8567   133.4234
    3.5507     1.2137    61.7511     5.9498   133.9706
    3.5607     1.2195    61.8344     6.0448   134.5354
    3.5707     1.2253    61.9169     6.1425   135.1070
    3.5807     1.2314    61.9892     6.2431   135.6821
    3.5907     1.2372    62.0848     6.3454   136.2834
    3.6008     1.2433    62.1694     6.4510   136.8876
    3.6108     1.2494    62.2552     6.5595   137.5016
    3.6208     1.2554    62.3475     6.6707   138.1323
    3.6308     1.2617    62.4252     6.7858   138.7623
    3.6408     1.2680    62.5108     6.9036   139.4100
    3.6508     1.2742    62.6072     7.0244   140.0750
    3.6608     1.2806    62.6977     7.1489   140.7487
    3.6708     1.2869    62.7938     7.2769   141.4368
    3.6809     1.2935    62.8743     7.4094   142.1288
    3.6909     1.3001    62.9637     7.5455   142.8386
    3.7009     1.3067    63.0540     7.6856   143.5620
    3.7109     1.3135    63.1364     7.8305   144.2932
    3.7209     1.3202    63.2358     7.9788   145.0508
    3.7309     1.3270    63.3288     8.1322   145.8169
    3.7409     1.3338    63.4220     8.2904   146.5989
    3.7509     1.3406    63.5348     8.4524   147.4088
    3.7610     1.3478    63.6104     8.6221   148.2096
    3.7710     1.3548    63.7158     8.7955   149.0453
    3.7810     1.3619    63.8133     8.9752   149.8928
    3.7910     1.3691    63.9093     9.1607   150.7582
    3.8010     1.3764    64.0146     9.3523   151.6449
    3.8110     1.3838    64.1042     9.5512   152.5417
    3.8210     1.3912    64.2113     9.7560   153.4676
    3.8310     1.3987    64.3110     9.9685   154.4087
    3.8411     1.4064    64.4038    10.1891   155.3655
    3.8511     1.4139    64.5132    10.4164   156.3534
    3.8611     1.4217    64.6146    10.6523   157.3589
    3.8711     1.4294    64.7268    10.8965   158.3917
    3.8811     1.4372    64.8383    11.1498   159.4480
    3.8911     1.4454    64.9242    11.4147   160.5147
    3.9011     1.4534    65.0375    11.6879   161.6194
    3.9111     1.4616    65.1439    11.9719   162.7491
    3.9212     1.4697    65.2590    12.2668   163.9079
    3.9312     1.4780    65.3758    12.5731   165.0972
    3.9412     1.4865    65.4762    12.8938   166.3039
    3.9512     1.4951    65.5827    13.2267   167.5462
    3.9612     1.5037    65.6936    13.5735   168.8207
    3.9712     1.5124    65.8038    13.9350   170.1274
    3.9812     1.5211    65.9242    14.3109   171.4747
    3.9912     1.5300    66.0385    14.7044   172.8509
    4.0013     1.5390    66.1507    15.1150   174.2661
    4.0113     1.5479    66.2824    15.5430   175.7247
    4.0213     1.5573    66.3786    15.9933   177.2111
    4.0313     1.5665    66.5029    16.4627   178.7475
    4.0413     1.5759    66.6287    16.9536   180.3300
    4.0513     1.5854    66.7476    17.4694   181.9530
    4.0613     1.5949    66.8744    18.0094   183.6272
    4.0713     1.6048    66.9853    18.5787   185.3427
    4.0814     1.6146    67.1139    19.1746   187.1174
    4.0914     1.6246    67.2353    19.8026   188.9422
    4.1014     1.6348    67.3471    20.4650   190.8195
    4.1114     1.6448    67.4908    21.1592   192.7675
    4.1214     1.6552    67.6126    21.8944   194.7684
    4.1314     1.6656    67.7401    22.6705   196.8350
    4.1414     1.6762    67.8726    23.4902   198.9712
    4.1514     1.6870    67.9921    24.3601   201.1720
    4.1615     1.6978    68.1292    25.2792   203.4539
    4.1715     1.7087    68.2672    26.2554   205.8109
    4.1815     1.7199    68.3977    27.2932   208.2478
    4.1915     1.7311    68.5373    28.3972   210.7702
    4.2015     1.7425    68.6718    29.5737   213.3808
    4.2115     1.7542    68.8038    30.8305   216.0819
    4.2215     1.7659    68.9407    32.1733   218.8804
    4.2315     1.7779    69.0741    33.6114   221.7783
    4.2416     1.7898    69.2216    35.1520   224.7820
    4.2516     1.8021    69.3583    36.8083   227.8909
    4.2616     1.8144    69.5077    38.5890   231.1111
    4.2716     1.8269    69.6565    40.5072   234.4436
    4.2816     1.8398    69.7890    42.5798   237.8870
    4.2916     1.8527    69.9412    44.8139   241.4471
    4.3016     1.8659    70.0857    47.2278   245.1184
    4.3116     1.8791    70.2404    49.8317   248.9002
    4.3217     1.8926    70.3960    52.6385   252.7865
    4.3317     1.9064    70.5439    55.6579   256.7707
    4.3417     1.9204    70.6928    58.8927   260.8456
    4.3517     1.9347    70.8442    62.3437   265.0050
    4.3617     1.9492    70.9950    66.0079   269.2477
    4.3717     1.9638    71.1582    69.8794   273.5813
    4.3817     1.9787    71.3216    73.9572   278.0277
    4.3917     1.9940    71.4774    78.2490   282.6255
    4.4018     2.0093    71.6532    82.7691   287.4208
    4.4118     2.0255    71.7952    87.5652   292.4751
    4.4218     2.0415    71.9719    92.6935   297.8300
    4.4318     2.0580    72.1355    98.2478   303.5331
    4.4418     2.0747    72.3063   104.3327   309.6071
    4.4518     2.0917    72.4803   111.0674   316.0647
    4.4618     2.1093    72.6369   118.5771   322.9042
    4.4718     2.1268    72.8130   126.9923   330.0963
    4.4819     2.1447    72.9800   136.4513   337.6073
    4.4919     2.1627    73.1512   147.1049   345.3786
    4.5019     2.1805    73.3313   159.1220   353.3235
    4.5119     2.1984    73.5128   172.6887   361.3421
    4.5219     2.2162    73.6872   188.0070   369.2985
    4.5319     2.2337    73.8815   205.3201   376.9803
    4.5419     2.2516    74.0490   224.8478   384.1751
    4.5519     2.2692    74.2412   246.8785   390.4959
    4.5620     2.2871    74.4212   271.6342   395.5372
    4.5720     2.3051    74.6145   299.3555   398.6836
    4.5820     2.3233    74.8106   330.1786   399.2004
    4.5920     2.3421    74.9976   364.0802   396.2120
    4.6020     2.3610    75.1980   400.8600   388.5577
    4.6120     2.3806    75.3918   439.9146   375.0648
    4.6220     2.4006    75.5874   480.2010   354.4710
    4.6320     2.4210    75.7915   520.1057   325.5885
    4.6421     2.4417    76.0019   557.3927   287.7888
    4.6521     2.4631    76.2006   589.3935   241.2544
    4.6621     2.4846    76.4234   613.2239   186.8781
    4.6721     2.5072    76.6200   626.6060   127.3364
    4.6821     2.5298    76.8380   627.8975    65.4843
    4.6921     2.5530    77.0569   616.9632     5.0473
    4.7021     2.5768    77.2700   595.2089   -50.5187
    4.7121     2.6008    77.5012   564.6035   -98.8798
    4.7222     2.6257    77.7115   528.4100  -138.5020
    4.7322     2.6509    77.9407   488.8665  -169.2328
    4.7422     2.6765    78.1730   448.5081  -191.5557
    4.7522     2.7031    78.3880   409.2719  -206.5635
    4.7622     2.7295    78.6432   371.7303  -215.3496
    4.7722     2.7572    78.8636   337.3122  -219.3995
    4.7822     2.7851    79.1047   305.7390  -219.6187
    4.7922     2.8134    79.3578   277.1957  -216.9971
    4.8023     2.8431    79.5802   251.8289  -212.5148
    4.8123     2.8728    79.8387   228.9996  -206.4453
    4.8223     2.9032    80.0920   208.7176  -199.4514
    4.8323     2.9345    80.3383   190.7455  -191.9253
    4.8423     2.9661    80.6068   174.6804  -183.9548
    4.8523     2.9991    80.8491   160.5014  -175.9949
    4.8623     3.0324    81.1171   147.7895  -167.9149
    4.8723     3.0665    81.3843   136.4470  -159.9304
    4.8824     3.1016    81.6496   126.3260  -152.1436
    4.8924     3.1372    81.9329   117.2133  -144.4833
    4.9024     3.1741    82.2035   109.0639  -137.1272
    4.9124     3.2120    82.4768   101.7323  -130.0321
    4.9224     3.2504    82.7724    95.0726  -123.0970
    4.9324     3.2906    83.0441    89.1065  -116.5548
    4.9424     3.3312    83.3456    83.6465  -110.1396
    4.9524     3.3733    83.6359    78.7194  -104.0588
   4.96245    3.41651   83.93652   74.22096  -98.18376
   4.97247    3.46097   84.24187   70.11819  -92.54101
   4.98248    3.50707   84.54125   66.38172  -87.15938
   4.99249    3.55433   84.85459   62.94820  -81.94736
   5.00250    3.60308   85.17245   59.80195  -76.94346
   5.01252    3.65365   85.48567   56.92074  -72.15792
   5.02253    3.70538   85.81738   54.25543  -67.49751
   5.03254    3.75917   86.13926   51.81604  -63.06250
   5.04255    3.81429   86.47337   49.55943  -58.75863
   5.05257    3.87102   86.80898   47.47945  -54.61554
   5.06258    3.92955   87.13625   45.57195  -50.66960
   5.07259    3.98856   87.49015   43.78596  -46.76139
   5.08260    4.04881   87.84148   42.14293  -43.01619
   5.09262    4.11026   88.18834   40.62857  -39.41396
   5.10263    4.17195   88.55653   39.21600  -35.87003
   5.11264    4.23502   88.91603   37.92017  -32.48143
   5.12265    4.29907   89.28608   36.71811  -29.17184
   5.13267    4.36477   89.65797   35.61032  -25.96819
   5.14268    4.43250   90.03481   34.58922  -22.85684
   5.15269    4.50156   90.44644   33.63132  -19.74026
   5.16270    4.57462   90.83646   32.76657  -16.78547
   5.17272    4.65084   91.23702   31.97090  -13.88722
   5.18273    4.73022   91.65796   31.23672  -11.01835
   5.19274    4.81453   92.06342   30.57900   -8.26905
   5.20275    4.90217   92.49917   29.97176   -5.51027
   5.21277    4.99472   92.93240   29.42870   -2.82231
   5.22278    5.09228   93.36605   28.94830   -0.20415
   5.23279    5.19401   93.81843   28.51785    2.40998
   5.24280    5.30106   94.26181   28.15075    4.94174
   5.25282    5.41211   94.71750   27.83480    7.45535
   5.26283    5.52692   95.17655   27.57255    9.93291
   5.27284    5.64482   95.63226   27.36657   12.35597
   5.28285    5.76351   96.10568   27.20441   14.78896
   5.29287    5.88284   96.57040   27.09808   17.15932
   5.30288    6.00046   97.04591   27.03791   19.51625
   5.31289    6.11511   97.53899   27.01914   21.88465
   5.32290    6.22830   98.01794   27.05861   24.17562
   5.33292    6.33834   98.52724   27.13752   26.50580
   5.34293    6.44781   99.04662   27.26799   28.83102
   5.35294    6.55809   99.58578   27.45305   31.16728
    5.3630     6.6711   100.1482    27.6963    33.5335
    5.3730     6.7901   100.7134    28.0162    35.8776
    5.3830     6.9153   101.3031    28.4094    38.2621
    5.3930     7.0487   101.9099    28.8897    40.6646
    5.4030     7.1918   102.5268    29.4669    43.0843
    5.4130     7.3440   103.1750    30.1453    45.5512
    5.4230     7.5082   103.8248    30.9443    48.0269
    5.4330     7.6835   104.4970    31.8721    50.5315
    5.4431     7.8708   105.1933    32.9369    53.0886
    5.4531     8.0728   105.8837    34.1735    55.6204
    5.4631     8.2872   106.6113    35.5766    58.2173
    5.4731     8.5170   107.3469    37.1809    60.8157
    5.4831     8.7631   108.0928    39.0107    63.4065
    5.4931     9.0248   108.8665    41.0785    66.0169
    5.5031     9.3050   109.6388    43.4296    68.5718
    5.5131     9.6024   110.4343    46.0767    71.0951
    5.5232     9.9178   111.2395    49.0547    73.5369
    5.5332    10.2511   112.0511    52.3959    75.8474
    5.5432    10.5987   112.8914    56.1002    78.0373
    5.5532    10.9622   113.7239    60.2320    79.9636
    5.5632    11.3368   114.5735    64.7791    81.6297
    5.5732    11.7197   115.4460    69.7636    82.9563
    5.5832    12.1124   116.3164    75.2294    83.8160
    5.5932    12.5100   117.2328    81.1446    84.1740
    5.6033    12.9183   118.1720    87.5446    83.8441
    5.6133    13.3409   119.1485    94.3886    82.6701
    5.6233    13.7841   120.1688   101.5912    80.4426
    5.6333    14.2568   121.2279   108.9916    76.9226
    5.6433    14.7659   122.3388   116.2956    71.9074
    5.6533    15.3206   123.4966   123.1076    65.2474
    5.6633    15.9302   124.6938   128.9594    56.9113
    5.6733    16.5989   125.9515   133.2478    47.1420
    5.6834    17.3413   127.2305   135.6106    36.2618
    5.6934    18.1615   128.5521   135.6612    24.9370
    5.7034    19.0690   129.9090   133.3500    13.8597
    5.7134    20.0776   131.2738   128.9613     3.6218
    5.7234    21.1911   132.6683   122.8107    -5.1637
    5.7334    22.4235   134.0625   115.5018   -12.2731
    5.7434    23.7846   135.4430   107.5639   -17.6255
    5.7534    25.2812   136.7955    99.4429   -21.2875
    5.7635    26.9222   138.0829    91.5361   -23.5266
    5.7735    28.7054   139.2859    84.0399   -24.5285
    5.7835    30.6227   140.3707    77.1020   -24.5534
    5.7935    32.6591   141.2895    70.8001   -23.8626
    5.8035    34.7731   142.0292    65.0975   -22.5345
    5.8135    36.9279   142.5275    60.0417   -20.8986
    5.8235    39.0489   142.7873    55.5453   -18.9597
    5.8335    41.0577   142.8122    51.5654   -16.8311
    5.8436    42.8794   142.6201    48.0700   -14.6531
    5.8536    44.4350   142.2925    44.9846   -12.4155
    5.8636    45.6818   141.9180    42.2652   -10.1843
    5.8736    46.6118   141.6064    39.8627    -7.9896
    5.8836    47.2558   141.4659    37.7263    -5.8377
    5.8936    47.6822   141.5734    35.8205    -3.7796
    5.9036    47.9698   141.9905    34.1008    -1.8108
  5.914      48.20      142.7      32.53     0.9084E-1
    5.9237    48.4685   143.8382    31.0737     1.8788
    5.9337    48.8228   145.2802    29.6969     3.6988
    5.9437    49.3457   147.0239    28.4124     5.4024
    5.9537    50.0817   149.0598    27.1942     7.1088
    5.9637    51.0764   151.3592    26.0446     8.8160
    5.9737    52.3813   153.8730    24.9775    10.4635
    5.9837    54.0157   156.5901    23.9785    12.1594
    5.9937    56.0192   159.4618    23.0609    13.8343
    6.0038    58.4161   162.4578    22.2233    15.4972
    6.0138    61.2268   165.5494    21.4604    17.1727
    6.0238    64.4844   168.6958    20.7792    18.7922
    6.0338    68.1999   171.8826    20.1660    20.4283
    6.0438    72.4108   175.0751    19.6252    22.0223
    6.0538    77.1532   178.2513    19.1530    23.5750
    6.0638    82.4623   181.3926    18.7356    25.1689
    6.0738    88.4230   184.4535    18.3870    26.6747
    6.0839    95.1038   187.3906    18.0942    28.1757
    6.0939   102.6003   190.1237    17.8563    29.6676
    6.1039   111.0333   192.5252    17.6775    31.1051
    6.1139   120.4982   194.4186    17.5525    32.5233
    6.1239   131.0826   195.5560    17.4786    33.9372
    6.1339   142.8543   195.6201    17.4610    35.2921
    6.1439   155.7825   194.2208    17.4926    36.6303
    6.1539   169.7632   190.9162    17.5784    37.8837
    6.1640   184.4876   185.2222    17.7058    39.1098
    6.1740   199.4762   176.6842    17.8709    40.2773
    6.1840   214.0007   164.9477    18.0628    41.3863
    6.1940   227.1311   149.8870    18.2663    42.4534
    6.2040   237.8328   131.7204    18.4723    43.4434
    6.2140   245.0957   111.0863    18.6646    44.3878
    6.2240   248.1540    89.0139    18.8327    45.3110
    6.2340   246.7816    66.7981    18.9819    46.1707
    6.2441   241.0780    45.7355    19.1051    47.0733
    6.2541   231.7660    26.9108    19.2185    47.9938
    6.2641   219.8204    11.0128    19.3415    48.9027
    6.2741   206.2065    -1.6630    19.4809    49.8500
    6.2841   191.9026   -11.2090    19.6562    50.7614
    6.2941   177.5682   -17.8834    19.8620    51.6866
    6.3041   163.7300   -22.0941    20.0995    52.5818
    6.3141   150.7295   -24.2837    20.3544    53.4647
    6.3242   138.6972   -24.8086    20.6117    54.3368
    6.3342   127.8073   -24.1290    20.8640    55.1543
    6.3442   117.9864   -22.4677    21.0962    55.9620
    6.3542   109.2098   -20.0897    21.2999    56.8178
