#                                                           
#  /$$     /$$ /$$$$$$  /$$      /$$ /$$$$$$$   /$$$$$$     
# |  $$   /$$//$$__  $$| $$$    /$$$| $$__  $$ /$$__  $$    
#  \  $$ /$$/| $$  \ $$| $$$$  /$$$$| $$  \ $$| $$  \ $$    
#   \  $$$$/ | $$$$$$$$| $$ $$/$$ $$| $$$$$$$ | $$  | $$    
#    \  $$/  | $$__  $$| $$  $$$| $$| $$__  $$| $$  | $$    
#     | $$   | $$  | $$| $$\  $ | $$| $$  \ $$| $$  | $$    
#     | $$   | $$  | $$| $$ \/  | $$| $$$$$$$/|  $$$$$$/    
#     |__/   |__/  |__/|__/     |__/|_______/  \______/     
#                                                           
#               Version 3.2.4 Revision 788                  
#               http://www.yambo-code.org                   
#
# Polarizability ( -<<X>> ) [volume @ Q(1) [q->0 direction]0.5774E-5 0.5774E-5 0.5774E-5
#
#
# - Energies      are Perdew & Wang (xc)
# - Wavefunctions are Perdew & Wang (xc)
#
# - The Green`s function is resonant -
# - Using the Length Gauge -
# - [r,Vnl] *is* included -
#
#   BSK|Identifier              :8847
#      |Dimension               :390
#      |Bands                   :10 - 50
#      |Exchange           [res]: yes
#      |Correlation        [res]: no
#      |Kernel`s coupling       : no
#      |Exchange           [cpl]: no
#      |W interaction is bare   : no
#      |Correlation        [cpl]: no
#      |ALDA kernel in R-space  : yes
#      |RL vectors    [exchange]:367
#      |E/h energy range    [ev]:-1.000000 - -1.000000
#      |Coupling range     [o/o]: 100.0000 -  100.0000
#  
#   Haydock|Accuracy (requested) [o/o]:  0.02000
#          |Accuracy (reached)   [o/o]:  0.01645
#          |Iteration                 :64
#
#  E/ev[1]    alpha /Im[2alpha /Re[3alpha0/Im[4alpha0/Re[5alpha`/Im[6alpha`/Re[7]
#
  3.000     0.2196E-1   32.79     0.6819E-1   92.93     0.2196E-1   32.81   
   3.01002    1.17794   32.85516    3.55656   93.36160    1.17776   32.87715
   3.02004    1.20580   32.39474    3.69719   92.15712    1.20561   32.41673
   3.03006    1.21347   32.26176    3.75594   91.92005    1.21329   32.28400
   3.04008    1.22005   32.18982    3.80714   91.89024    1.21987   32.21206
   3.05010    1.22618   32.15352    3.85536   91.96309    1.22599   32.17593
   3.06012    1.23209   32.13713    3.90230   92.09586    1.23191   32.15945
   3.07014    1.23789   32.13441    3.94859   92.27219    1.23770   32.15676
   3.08016    1.24365   32.13884    3.99474   92.47861    1.24346   32.16116
   3.09018    1.24937   32.15114    4.04095   92.70986    1.24917   32.17351
   3.10020    1.25507   32.16898    4.08741   92.96061    1.25488   32.19133
   3.11022    1.26077   32.19166    4.13431   93.22658    1.26058   32.21398
   3.12024    1.26643   32.22394    4.18155   93.51045    1.26624   32.24632
   3.13026    1.27215   32.25433    4.22942   93.80504    1.27195   32.27672
   3.14028    1.27790   32.28601    4.27798   94.10944    1.27770   32.30849
   3.15030    1.28367   32.31983    4.32713   94.42619    1.28347   32.34221
   3.16032    1.28948   32.35569    4.37705   94.75145    1.28928   32.37804
   3.17034    1.29524   32.40109    4.42762   95.08891    1.29504   32.42366
   3.18036    1.30110   32.44234    4.47908   95.43275    1.30089   32.46487
   3.19038    1.30701   32.48223    4.53137   95.78554    1.30681   32.50474
   3.20040    1.31295   32.52489    4.58454   96.14590    1.31274   32.54732
   3.21042    1.31886   32.57594    4.63854   96.51660    1.31865   32.59856
   3.22044    1.32486   32.62259    4.69358   96.89244    1.32465   32.64510
   3.23046    1.33091   32.66883    4.74956   97.27720    1.33071   32.69134
   3.24048    1.33696   32.72187    4.80648   97.67090    1.33675   32.74458
   3.25050    1.34310   32.77028    4.86456   98.06956    1.34289   32.79286
   3.26052    1.34927   32.82215    4.92373   98.47574    1.34906   32.84479
   3.27054    1.35544   32.87844    4.98384   98.89301    1.35523   32.90123
   3.28056    1.36172   32.92941    5.04531   99.31322    1.36151   32.95209
   3.29058    1.36804   32.98245    5.10789   99.74224    1.36783   33.00502
    3.3006     1.3744    33.0414     5.1716   100.1800     1.3741    33.0641
    3.3106     1.3808    33.0971     5.2367   100.6252     1.3805    33.1198
    3.3206     1.3872    33.1567     5.3030   101.0777     1.3870    33.1796
    3.3307     1.3937    33.2132     5.3707   101.5368     1.3935    33.2361
    3.3407     1.4003    33.2701     5.4398   102.0032     1.4001    33.2929
    3.3507     1.4068    33.3326     5.5103   102.4791     1.4066    33.3554
    3.3607     1.4135    33.3928     5.5822   102.9629     1.4133    33.4156
    3.3707     1.4202    33.4562     5.6557   103.4538     1.4200    33.4790
    3.3808     1.4270    33.5159     5.7307   103.9537     1.4268    33.5386
    3.3908     1.4338    33.5819     5.8074   104.4611     1.4335    33.6048
    3.4008     1.4407    33.6431     5.8856   104.9778     1.4404    33.6660
    3.4108     1.4476    33.7109     5.9656   105.5017     1.4473    33.7338
    3.4208     1.4546    33.7732     6.0474   106.0353     1.4544    33.7962
    3.4309     1.4616    33.8423     6.1310   106.5761     1.4614    33.8653
    3.4409     1.4687    33.9070     6.2164   107.1282     1.4685    33.9299
    3.4509     1.4759    33.9774     6.3038   107.6881     1.4756    34.0004
    3.4609     1.4831    34.0492     6.3931   108.2583     1.4828    34.0723
    3.4709     1.4904    34.1149     6.4847   108.8349     1.4902    34.1380
    3.4810     1.4977    34.1851     6.5782   109.4237     1.4975    34.2083
    3.4910     1.5052    34.2533     6.6741   110.0210     1.5049    34.2763
    3.5010     1.5126    34.3286     6.7721   110.6291     1.5124    34.3517
    3.5110     1.5202    34.4026     6.8724   111.2488     1.5199    34.4258
    3.5210     1.5278    34.4711     6.9754   111.8755     1.5276    34.4941
    3.5311     1.5355    34.5466     7.0807   112.5163     1.5352    34.5698
    3.5411     1.5432    34.6230     7.1886   113.1661     1.5430    34.6462
    3.5511     1.5511    34.6953     7.2993   113.8269     1.5508    34.7185
    3.5611     1.5589    34.7732     7.4127   114.4998     1.5587    34.7966
    3.5711     1.5669    34.8507     7.5289   115.1849     1.5666    34.8741
    3.5812     1.5750    34.9243     7.6483   115.8799     1.5747    34.9476
    3.5912     1.5831    35.0054     7.7707   116.5878     1.5828    35.0287
    3.6012     1.5912    35.0864     7.8961   117.3107     1.5910    35.1097
    3.6112     1.5996    35.1605     8.0252   118.0416     1.5993    35.1838
    3.6212     1.6079    35.2434     8.1574   118.7894     1.6076    35.2668
    3.6313     1.6163    35.3256     8.2934   119.5484     1.6160    35.3489
    3.6413     1.6248    35.4091     8.4328   120.3241     1.6245    35.4325
    3.6513     1.6334    35.4925     8.5762   121.1122     1.6331    35.5159
    3.6613     1.6421    35.5718     8.7237   121.9131     1.6418    35.5952
    3.6713     1.6508    35.6565     8.8752   122.7307     1.6505    35.6799
    3.6814     1.6596    35.7431     9.0309   123.5639     1.6594    35.7665
    3.6914     1.6685    35.8323     9.1910   124.4132     1.6682    35.8559
    3.7014     1.6775    35.9197     9.3559   125.2781     1.6772    35.9433
    3.7114     1.6867    36.0005     9.5257   126.1579     1.6864    36.0240
    3.7214     1.6959    36.0900     9.7003   127.0563     1.6956    36.1135
    3.7315     1.7051    36.1813     9.8802   127.9718     1.7048    36.2048
    3.7415     1.7145    36.2725    10.0654   128.9063     1.7142    36.2962
    3.7515     1.7239    36.3637    10.2564   129.8585     1.7237    36.3873
    3.7615     1.7335    36.4550    10.4531   130.8308     1.7332    36.4787
    3.7715     1.7432    36.5482    10.6561   131.8214     1.7429    36.5719
    3.7816     1.7529    36.6430    10.8654   132.8333     1.7526    36.6668
    3.7916     1.7628    36.7385    11.0815   133.8653     1.7625    36.7624
    3.8016     1.7728    36.8283    11.3046   134.9179     1.7725    36.8521
    3.8116     1.7829    36.9243    11.5349   135.9933     1.7826    36.9481
    3.8216     1.7930    37.0208    11.7728   137.0918     1.7927    37.0445
    3.8317     1.8033    37.1205    12.0186   138.2146     1.8030    37.1442
    3.8417     1.8137    37.2195    12.2728   139.3604     1.8134    37.2431
    3.8517     1.8242    37.3193    12.5356   140.5320     1.8239    37.3430
    3.8617     1.8348    37.4200    12.8075   141.7290     1.8345    37.4439
    3.8717     1.8455    37.5214    13.0890   142.9532     1.8452    37.5452
    3.8818     1.8564    37.6237    13.3806   144.2045     1.8561    37.6475
    3.8918     1.8673    37.7273    13.6826   145.4846     1.8670    37.7512
    3.9018     1.8784    37.8327    13.9958   146.7936     1.8781    37.8565
    3.9118     1.8896    37.9375    14.3204   148.1338     1.8893    37.9614
    3.9218     1.9009    38.0486    14.6569   149.5072     1.9006    38.0726
    3.9319     1.9124    38.1562    15.0065   150.9115     1.9120    38.1803
    3.9419     1.9239    38.2662    15.3698   152.3489     1.9236    38.2903
    3.9519     1.9356    38.3749    15.7470   153.8223     1.9353    38.3992
    3.9619     1.9475    38.4837    16.1391   155.3322     1.9472    38.5078
    3.9719     1.9595    38.5961    16.5473   156.8790     1.9592    38.6203
    3.9820     1.9717    38.7078    16.9718   158.4660     1.9713    38.7319
    3.9920     1.9839    38.8207    17.4141   160.0926     1.9836    38.8448
    4.0020     1.9963    38.9355    17.8748   161.7625     1.9960    38.9596
    4.0120     2.0089    39.0518    18.3555   163.4744     2.0086    39.0759
    4.0220     2.0215    39.1734    18.8563   165.2354     2.0212    39.1976
    4.0321     2.0344    39.2897    19.3799   167.0406     2.0341    39.3140
    4.0421     2.0474    39.4094    19.9266   168.8966     2.0471    39.4336
    4.0521     2.0606    39.5286    20.4985   170.8028     2.0603    39.5528
    4.0621     2.0740    39.6487    21.0965   172.7636     2.0736    39.6728
    4.0721     2.0874    39.7759    21.7229   174.7797     2.0871    39.8003
    4.0822     2.1011    39.9005    22.3793   176.8537     2.1007    39.9249
    4.0922     2.1150    40.0228    23.0678   178.9881     2.1146    40.0471
    4.1022     2.1290    40.1484    23.7904   181.1860     2.1286    40.1728
    4.1122     2.1431    40.2807    24.5498   183.4494     2.1427    40.3052
    4.1222     2.1575    40.4106    25.3484   185.7818     2.1571    40.4351
    4.1323     2.1721    40.5381    26.1894   188.1853     2.1717    40.5626
    4.1423     2.1868    40.6685    27.0756   190.6638     2.1865    40.6929
    4.1523     2.2017    40.8054    28.0102   193.2212     2.2013    40.8299
    4.1623     2.2169    40.9395    28.9976   195.8600     2.2165    40.9641
    4.1723     2.2322    41.0727    30.0420   198.5836     2.2319    41.0972
    4.1824     2.2478    41.2088    31.1475   201.3969     2.2474    41.2332
    4.1924     2.2635    41.3501    32.3194   204.3035     2.2631    41.3747
    4.2024     2.2795    41.4890    33.5638   207.3068     2.2791    41.5135
    4.2124     2.2958    41.6277    34.8871   210.4107     2.2954    41.6523
    4.2224     2.3122    41.7745    36.2951   213.6207     2.3118    41.7991
    4.2325     2.3289    41.9179    37.7972   216.9392     2.3285    41.9424
    4.2425     2.3457    42.0668    39.4009   220.3713     2.3453    42.0916
    4.2525     2.3630    42.2117    41.1168   223.9193     2.3625    42.2365
    4.2625     2.3804    42.3586    42.9549   227.5872     2.3800    42.3834
    4.2725     2.3981    42.5131    44.9261   231.3774     2.3977    42.5379
    4.2826     2.4161    42.6635    47.0428   235.2914     2.4157    42.6883
    4.2926     2.4343    42.8197    49.3170   239.3294     2.4339    42.8446
    4.3026     2.4530    42.9737    51.7608   243.4908     2.4525    42.9985
    4.3126     2.4719    43.1277    54.3852   247.7722     2.4715    43.1524
    4.3226     2.4911    43.2884    57.1981   252.1695     2.4907    43.3133
    4.3327     2.5107    43.4471    60.2055   256.6758     2.5103    43.4719
    4.3427     2.5306    43.6133    63.4069   261.2842     2.5301    43.6382
    4.3527     2.5510    43.7739    66.7997   265.9890     2.5505    43.7986
    4.3627     2.5716    43.9428    70.3758   270.7905     2.5712    43.9676
    4.3727     2.5928    44.1079    74.1260   275.6988     2.5923    44.1327
    4.3828     2.6143    44.2787    78.0405   280.7389     2.6138    44.3036
    4.3928     2.6363    44.4482    82.1189   285.9531     2.6358    44.4730
    4.4028     2.6586    44.6229    86.3715   291.3944     2.6581    44.6478
    4.4128     2.6814    44.7955    90.8298   297.1229     2.6809    44.8205
    4.4228     2.7046    44.9720    95.5475   303.1949     2.7041    44.9970
    4.4329     2.7280    45.1489   100.6007   309.6599     2.7275    45.1740
    4.4429     2.7517    45.3291   106.0798   316.5536     2.7512    45.3542
    4.4529     2.7755    45.5079   112.0830   323.8994     2.7750    45.5330
    4.4629     2.7993    45.6932   118.7117   331.7090     2.7988    45.7184
    4.4729     2.8231    45.8750   126.0688   339.9846     2.8226    45.8999
    4.4830     2.8467    46.0630   134.2613   348.7141     2.8462    46.0881
    4.4930     2.8702    46.2548   143.4050   357.8804     2.8697    46.2800
    4.5030     2.8938    46.4435   153.6257   367.4593     2.8933    46.4685
    4.5130     2.9174    46.6381   165.0695   377.4136     2.9168    46.6633
    4.5230     2.9412    46.8320   177.8969   387.6984     2.9407    46.8570
    4.5331     2.9653    47.0340   192.2964   398.2488     2.9647    47.0591
    4.5431     2.9897    47.2388   208.4776   408.9770     2.9892    47.2641
    4.5531     3.0149    47.4389   226.6801   419.7617     3.0143    47.4641
    4.5631     3.0404    47.6488   247.1786   430.4255     3.0398    47.6740
    4.5731     3.0665    47.8613   270.2678   440.7393     3.0659    47.8866
    4.5832     3.0933    48.0707   296.2678   450.3837     3.0927    48.0958
    4.5932     3.1206    48.2876   325.5294   458.9191     3.1200    48.3129
    4.6032     3.1485    48.5078   358.3732   465.7812     3.1480    48.5331
    4.6132     3.1772    48.7275   395.0875   470.2291     3.1766    48.7528
    4.6232     3.2064    48.9522   435.8914   471.2867     3.2058    48.9775
    4.6333     3.2363    49.1798   480.7866   467.7875     3.2357    49.2052
    4.6433     3.2668    49.4105   529.5056   458.3004     3.2662    49.4360
    4.6533     3.2980    49.6408   581.3297   441.2509     3.2974    49.6662
    4.6633     3.3299    49.8779   634.9654   414.9367     3.3292    49.9033
    4.6733     3.3623    50.1183   688.3589   377.8784     3.3617    50.1437
    4.6834     3.3957    50.3556   738.6711   329.1423     3.3950    50.3811
    4.6934     3.4295    50.6023   782.4407   268.6831     3.4289    50.6277
    4.7034     3.4641    50.8525   815.9744   197.8314     3.4634    50.8779
    4.7134     3.4994    51.1063   835.9415   119.2987     3.4987    51.1317
    4.7234     3.5355    51.3613   840.2496    37.3114     3.5348    51.3868
    4.7335     3.5725    51.6153   828.4597   -43.4649     3.5718    51.6407
    4.7435     3.6102    51.8788   801.8642  -118.6103     3.6095    51.9042
    4.7535     3.6486    52.1461   763.2930  -184.6142     3.6479    52.1716
    4.7635     3.6880    52.4162   716.3169  -239.4323     3.6873    52.4417
    4.7735     3.7282    52.6896   664.6157  -282.4561     3.7275    52.7152
    4.7836     3.7694    52.9630   611.3127  -314.2485     3.7687    52.9883
    4.7936     3.8115    53.2450   558.8306  -336.0692     3.8108    53.2705
    4.8036     3.8546    53.5305   508.7881  -349.5093     3.8539    53.5560
    4.8136     3.8987    53.8196   462.2263  -356.2145     3.8980    53.8451
    4.8236     3.9439    54.1135   419.5510  -357.6622     3.9431    54.1390
    4.8337     3.9901    54.4119   380.9567  -355.1791     3.9894    54.4374
    4.8437     4.0376    54.7142   346.2663  -349.7914     4.0368    54.7397
    4.8537     4.0863    55.0199   315.2921  -342.3819     4.0855    55.0455
    4.8637     4.1364    55.3259   287.6494  -333.5435     4.1357    55.3514
    4.8737     4.1878    55.6416   263.0625  -323.8195     4.1870    55.6671
    4.8838     4.2405    55.9622   241.1606  -313.5374     4.2397    55.9877
    4.8938     4.2948    56.2873   221.6723  -303.0123     4.2940    56.3128
    4.9038     4.3507    56.6172   204.2703  -292.3870     4.3498    56.6428
    4.9138     4.4082    56.9521   188.7504  -281.8663     4.4074    56.9776
    4.9238     4.4675    57.2919   174.8643  -271.5200     4.4666    57.3175
    4.9339     4.5286    57.6379   162.4014  -261.3946     4.5277    57.6633
    4.9439     4.5917    57.9872   151.2173  -251.5784     4.5908    58.0128
    4.9539     4.6567    58.3406   141.1455  -242.0733     4.6558    58.3662
    4.9639     4.7236    58.7004   132.0543  -232.8923     4.7227    58.7258
    4.9739     4.7924    59.0658   123.8280  -224.0345     4.7915    59.0913
    4.9840     4.8630    59.4340   116.3859  -215.5374     4.8620    59.4596
    4.9940     4.9351    59.8085   109.6182  -207.3448     4.9341    59.8340
    5.0040     5.0085    60.1880   103.4600  -199.4686     5.0075    60.2135
    5.0140     5.0828    60.5733    97.8434  -191.8909     5.0818    60.5988
    5.0240     5.1579    60.9627    92.7242  -184.6322     5.1569    60.9883
    5.0341     5.2335    61.3603    88.0332  -177.6294     5.2325    61.3857
    5.0441     5.3097    61.7644    83.7386  -170.9002     5.3087    61.7898
    5.0541     5.3868    62.1759    79.7982  -164.4202     5.3858    62.2013
    5.0641     5.4653    62.5949    76.1778  -158.1737     5.4642    62.6202
    5.0741     5.5455    63.0246    72.8533  -152.1653     5.5444    63.0499
    5.0842     5.6282    63.4628    69.7875  -146.3483     5.6271    63.4881
    5.0942     5.7139    63.9091    66.9688  -140.7468     5.7127    63.9344
    5.1042     5.8030    64.3651    64.3669  -135.3167     5.8019    64.3903
    5.1142     5.8961    64.8303    61.9720  -130.0742     5.8949    64.8554
    5.1242     5.9932    65.3099    59.7571  -124.9703     5.9920    65.3352
    5.1343     6.0951    65.7944    57.7229  -120.0491     6.0939    65.8198
    5.1443     6.2021    66.2869    55.8449  -115.2564     6.2009    66.3122
    5.1543     6.3144    66.7878    54.1166  -110.6001     6.3131    66.8130
    5.1643     6.4323    67.2986    52.5277  -106.0695     6.4310    67.3239
    5.1743     6.5560    67.8191    51.0728  -101.6695     6.5548    67.8441
   5.18437    6.68609   68.34708   49.73707  -97.36243    6.68476   68.37218
   5.19439    6.82269   68.88069   48.51833  -93.15865    6.82133   68.90573
   5.20441    6.96539   69.42921   47.40858  -89.04118    6.96401   69.45421
   5.21443    7.11471   69.97955   46.40798  -85.02484    7.11330   70.00458
   5.22445    7.26989   70.53570   45.50780  -81.08486    7.26846   70.56055
   5.23447    7.43014   71.09589   44.70630  -77.22336    7.42867   71.12068
   5.24449    7.59392   71.66142   43.99932  -73.43099    7.59242   71.68620
   5.25451    7.75933   72.23373   43.38303  -69.69927    7.75780   72.25836
   5.26453    7.92411   72.81554   42.85504  -66.02598    7.92255   72.84032
   5.27455    8.08681   73.40028   42.41495  -62.41809    8.08521   73.42482
   5.28457    8.24568   73.99524   42.05697  -58.85949    8.24405   74.01972
   5.29459    8.40013   74.60519   41.77760  -55.34468    8.39848   74.62970
   5.30461    8.55078   75.23556   41.57294  -51.86401    8.54909   75.26021
   5.31463    8.69986   75.88247   41.44398  -48.42613    8.69814   75.90690
   5.32465    8.84958   76.55189   41.38684  -45.00900    8.84782   76.57618
   5.33467    9.00265   77.24429   41.40308  -41.60484    9.00084   77.26859
   5.34469    9.16121   77.96431   41.49424  -38.19258    9.15937   77.98866
   5.35471    9.32788   78.70504   41.67236  -34.78605    9.32602   78.72929
