#  __  __   ________   ___ __ __    _______   ______        
# /_/\/_/\ /_______/\ /__//_//_/\ /_______/\ /_____/\       
# \ \ \ \ \\::: _  \ \\::\| \| \ \\::: _  \ \\:::_ \ \      
#  \:\_\ \ \\::(_)  \ \\:.      \ \\::(_)  \/_\:\ \ \ \     
#   \::::_\/ \:: __  \ \\:.\-/\  \ \\::  _  \ \\:\ \ \ \    
#     \::\ \  \:.\ \  \ \\. \  \  \ \\::(_)  \ \\:\_\ \ \   
#      \__\/   \__\/\__\/ \__\/ \__\/ \_______\/ \_____\/   
#                                                           
#             GPL Version 3.2.1 Revision 549                
#                http://www.yambo-code.org                  
#
# Polarizability ( -<<X>> ) [volume @ Q(1) [q->0 direction]0.5774E-5 0.5774E-5 0.5774E-5
#
#
# - Energies      are GoWo Plasmon Pole appox.
# - Wavefunctions are Perdew & Wang (xc)
#
# - The Green`s function is resonant -
# - The gauge is transverse + [r,Vnl] -
#
#   BSK|Identifier              :1481
#      |Dimension               :110
#      |Bands                   :14 - 34
#      |Exchange           [res]: yes
#      |Correlation        [res]: yes
#      |Kernel`s coupling       : no
#      |Exchange           [cpl]: no
#      |W interaction is bare   : no
#      |Correlation        [cpl]: no
#      |ALDA kernel in R-space  : no
#      |RL vectors    [exchange]:249
#      |RL vectors [correlation]:11
#      |E/h energy range    [ev]:-1.000000 - -1.000000
#      |Coupling range     [o/o]: 100.0000 -  100.0000
#    W |Interaction is diagonal : no
#      |Matrix size             :249
#      |Bands                   :1 - 50
#      |e/h energy range    [ev]:-1.000000 - -1.000000
#      |Poles              [o/o]: 100.0000
#      |Rl vectors in the sum   :4991
#      |[r,Vnl] included        : yes
#      |Longitudinal Gauge      : no
#      |Field direction         :0.1000E-4  0.000000  0.000000
#      |Columbian Cutoff        :none
#      |xc-Kernel               :none
#   RIM|RL components      [col]:0
#      |Random points      [col]:0
#
#  E/ev[1]    alpha /Im[2alpha /Re[3alpha0/Im[4alpha0/Re[5]
#
  3.000     0.1505E-1   33.43     0.9235E-2   2.652   
   3.01002    0.80346   33.47998    0.50721    2.65740
   3.02004    0.82149   33.17422    0.51751    2.43635
   3.03006    0.82635   33.08883    0.51981    2.35455
   3.04008    0.83054   33.04867    0.52175    2.30193
   3.05010    0.83451   33.02891    0.52357    2.26356
   3.06012    0.83834   33.02726    0.52532    2.23348
   3.07014    0.84213   33.03060    0.52705    2.20886
   3.08016    0.84589   33.04166    0.52876    2.18810
   3.09018    0.84964   33.05661    0.53046    2.17030
   3.10020    0.85338   33.07668    0.53216    2.15472
   3.11022    0.85712   33.09887    0.53385    2.14091
   3.12024    0.86086   33.12770    0.53554    2.12943
   3.13026    0.86463   33.15376    0.53724    2.11837
   3.14028    0.86841   33.18328    0.53894    2.10825
   3.15030    0.87221   33.21309    0.54064    2.09895
   3.16032    0.87601   33.24714    0.54235    2.09050
   3.17034    0.87984   33.28186    0.54406    2.08349
   3.18036    0.88369   33.31712    0.54578    2.07637
   3.19038    0.88757   33.35248    0.54751    2.06957
   3.20040    0.89147   33.38985    0.54924    2.06329
   3.21042    0.89537   33.43022    0.55097    2.05835
   3.22044    0.89933   33.46771    0.55272    2.05282
   3.23046    0.90330   33.50729    0.55447    2.04769
   3.24048    0.90728   33.55083    0.55623    2.04356
   3.25050    0.91131   33.59106    0.55799    2.03913
   3.26052    0.91537   33.63207    0.55977    2.03488
   3.27054    0.91943   33.67683    0.56155    2.03158
   3.28056    0.92354   33.72010    0.56334    2.02762
   3.29058    0.92769   33.76241    0.56513    2.02407
   3.30060    0.93184   33.80906    0.56694    2.02138
   3.31062    0.93603   33.85433    0.56875    2.01823
   3.32064    0.94025   33.90169    0.57057    2.01572
   3.33066    0.94451   33.94644    0.57240    2.01280
   3.34068    0.94881   33.99190    0.57424    2.01007
   3.35070    0.95309   34.04430    0.57609    2.00817
   3.36072    0.95747   34.08909    0.57795    2.00563
   3.37074    0.96183   34.14029    0.57981    2.00396
   3.38076    0.96625   34.18946    0.58169    2.00168
   3.39078    0.97069   34.24018    0.58357    2.00016
   3.40080    0.97520   34.28771    0.58546    1.99805
   3.41082    0.97969   34.34204    0.58736    1.99680
   3.42084    0.98426   34.39148    0.58927    1.99490
   3.43086    0.98884   34.44487    0.59119    1.99388
   3.44088    0.99347   34.49624    0.59312    1.99221
   3.45090    0.99812   34.55165    0.59506    1.99121
   3.46092    1.00282   34.60608    0.59701    1.99050
   3.47094    1.00757   34.65849    0.59897    1.98898
   3.48096    1.01233   34.71541    0.60093    1.98825
   3.49098    1.01717   34.76794    0.60291    1.98674
   3.50100    1.02203   34.82433    0.60490    1.98631
   3.51102    1.02691   34.88213    0.60690    1.98576
   3.52104    1.03187   34.93663    0.60891    1.98466
   3.53106    1.03685   34.99506    0.61092    1.98420
   3.54108    1.04187   35.05376    0.61295    1.98378
   3.55110    1.04697   35.10885    0.61499    1.98276
   3.56112    1.05208   35.16813    0.61704    1.98261
   3.57114    1.05724   35.22863    0.61910    1.98234
   3.58116    1.06246   35.28638    0.62117    1.98140
   3.59118    1.06771   35.34811    0.62325    1.98140
   3.60120    1.07302   35.40795    0.62534    1.98140
   3.61122    1.07839   35.46810    0.62745    1.98051
   3.62124    1.08379   35.53083    0.62956    1.98063
   3.63126    1.08925   35.59347    0.63168    1.98071
   3.64128    1.09476   35.65691    0.63382    1.98074
   3.65130    1.10033   35.72003    0.63596    1.98090
   3.66132    1.10596   35.78324    0.63812    1.98024
   3.67134    1.11165   35.84612    0.64029    1.98051
   3.68136    1.11738   35.91193    0.64247    1.98078
   3.69138    1.12319   35.97627    0.64466    1.98117
   3.70140    1.12903   36.04491    0.64687    1.98144
   3.71142    1.13499   36.10625    0.64909    1.98094
   3.72144    1.14098   36.17305    0.65132    1.98136
   3.73146    1.14702   36.24170    0.65355    1.98172
   3.74148    1.15314   36.31113    0.65581    1.98218
   3.75150    1.15934   36.37841    0.65807    1.98268
   3.76152    1.16562   36.44630    0.66035    1.98307
   3.77154    1.17195   36.51722    0.66264    1.98355
   3.78156    1.17836   36.58905    0.66493    1.98416
   3.79158    1.18486   36.65873    0.66725    1.98476
   3.80160    1.19147   36.72706    0.66958    1.98451
   3.81162    1.19814   36.79860    0.67191    1.98510
   3.82164    1.20489   36.87217    0.67426    1.98572
   3.83166    1.21174   36.94521    0.67663    1.98647
   3.84168    1.21868   37.01870    0.67900    1.98712
   3.85170    1.22574   37.09221    0.68139    1.98783
   3.86172    1.23288   37.16770    0.68380    1.98856
   3.87174    1.24014   37.24304    0.68621    1.98925
   3.88176    1.24752   37.31861    0.68864    1.99000
   3.89178    1.25501   37.39516    0.69108    1.99081
   3.90180    1.26263   37.47243    0.69354    1.99163
   3.91182    1.27039   37.54977    0.69601    1.99240
   3.92184    1.27824   37.63269    0.69849    1.99413
   3.93186    1.28629   37.71092    0.70099    1.99490
   3.94188    1.29447   37.79218    0.70350    1.99580
   3.95190    1.30283   37.87295    0.70603    1.99672
   3.96192    1.31136   37.95442    0.70857    1.99763
   3.97194    1.32010   38.03568    0.71112    1.99851
   3.98196    1.32901   38.11978    0.71369    1.99945
   3.99198    1.33815   38.20409    0.71628    2.00043
   4.00200    1.34753   38.28840    0.71887    2.00143
   4.01202    1.35717   38.37229    0.72149    2.00245
   4.02204    1.36703   38.46165    0.72411    2.00427
   4.03206    1.37722   38.54926    0.72676    2.00529
   4.04208    1.38774   38.63646    0.72942    2.00631
   4.05210    1.39861   38.72414    0.73209    2.00742
   4.06212    1.40987   38.81291    0.73478    2.00844
   4.07214    1.42152   38.90592    0.73748    2.01038
   4.08216    1.43368   38.99617    0.74020    2.01140
   4.09218    1.44634   39.08854    0.74294    2.01249
   4.10220    1.45959   39.18036    0.74569    2.01368
   4.11222    1.47346   39.27570    0.74846    2.01560
   4.12224    1.48805   39.37132    0.75124    2.01683
   4.13226    1.50347   39.46592    0.75404    2.01796
   4.14228    1.51977   39.56210    0.75686    2.01913
   4.15230    1.53707   39.66103    0.75969    2.02123
   4.16232    1.55550   39.76005    0.76254    2.02244
   4.17235    1.57524   39.85666    0.76541    2.02357
   4.18236    1.59635   39.95656    0.76830    2.02490
   4.19238    1.61901   40.05794    0.77120    2.02684
   4.20240    1.64340   40.15737    0.77411    2.02820
   4.21243    1.66963   40.25675    0.77705    2.02949
   4.22245    1.69774   40.35975    0.78000    2.03162
   4.23246    1.72784   40.45754    0.78298    2.03287
   4.24249    1.75979   40.55710    0.78596    2.03504
   4.25250    1.79340   40.65419    0.78897    2.03636
   4.26253    1.82833   40.74760    0.79200    2.03769
   4.27254    1.86402   40.84100    0.79504    2.03988
   4.28257    1.89994   40.93032    0.79810    2.04132
   4.29259    1.93546   41.02022    0.80118    2.04353
   4.30261    1.97028   41.10470    0.80428    2.04489
   4.31263    2.00414   41.18730    0.80740    2.04625
   4.32265    2.03704   41.26987    0.81054    2.04842
   4.33267    2.06906   41.34980    0.81369    2.04986
   4.34269    2.10006   41.42940    0.81687    2.05217
   4.35271    2.12958   41.50278    0.82007    2.05361
   4.36273    2.15645   41.57769    0.82328    2.05593
   4.37275    2.17931   41.64420    0.82652    2.05741
   4.38277    2.19634   41.71185    0.82977    2.05968
   4.39279    2.20620   41.77486    0.83305    2.06119
   4.40281    2.20799   41.84410    0.83635    2.06350
   4.41283    2.20207   41.91124    0.83966    2.06509
   4.42285    2.18941   41.98818    0.84300    2.06742
   4.43287    2.17191   42.06894    0.84636    2.06897
   4.44289    2.15152   42.16112    0.84974    2.07135
   4.45291    2.13029   42.25684    0.85314    2.07291
   4.46293    2.10968   42.36335    0.85656    2.07533
   4.47295    2.09089   42.47506    0.86001    2.07700
   4.48297    2.07465   42.59161    0.86347    2.07932
   4.49299    2.06131   42.71505    0.86696    2.08182
   4.50301    2.05115   42.83672    0.87047    2.08338
   4.51303    2.04396   42.96858    0.87400    2.08587
   4.52305    2.03987   43.09687    0.87756    2.08751
   4.53307    2.03860   43.23029    0.88114    2.09008
   4.54309    2.04006   43.36513    0.88474    2.09263
   4.55311    2.04414   43.49984    0.88836    2.09423
   4.56313    2.05069   43.63660    0.89201    2.09676
   4.57315    2.05961   43.77531    0.89568    2.09930
   4.58317    2.07091   43.91106    0.89938    2.10105
   4.59319    2.08442   44.05066    0.90310    2.10358
   4.60321    2.10012   44.19093    0.90684    2.10615
   4.61323    2.11798   44.32898    0.91062    2.10790
   4.62325    2.13783   44.46676    0.91441    2.11051
   4.63327    2.15945   44.60519    0.91823    2.11307
   4.64329    2.18247   44.74341    0.92207    2.11572
   4.65331    2.20644   44.87642    0.92594    2.11754
   4.66333    2.23056   45.00943    0.92984    2.12019
   4.67335    2.25391   45.14132    0.93376    2.12288
   4.68337    2.27551   45.26882    0.93771    2.12474
   4.69339    2.29430   45.39779    0.94169    2.12736
   4.70341    2.30961   45.52540    0.94569    2.13012
   4.71343    2.32108   45.65516    0.94971    2.13277
   4.72345    2.32894   45.78746    0.95377    2.13558
   4.73347    2.33386   45.92068    0.95785    2.13744
   4.74349    2.33668   46.05950    0.96197    2.14009
   4.75351    2.33841   46.20366    0.96610    2.14297
   4.76353    2.33994   46.35299    0.97027    2.14574
   4.77355    2.34202   46.50556    0.97447    2.14842
   4.78357    2.34516   46.66027    0.97869    2.15044
   4.79359    2.34963   46.81874    0.98295    2.15324
   4.80361    2.35555   46.98340    0.98723    2.15601
   4.81363    2.36304   47.14920    0.99154    2.15889
   4.82365    2.37207   47.31811    0.99588    2.16170
   4.83367    2.38259   47.48919    1.00025    2.16461
   4.84369    2.39450   47.66304    1.00466    2.16742
   4.85371    2.40778   47.83680    1.00909    2.17034
   4.86373    2.42233   48.01244    1.01356    2.17230
   4.87375    2.43804   48.19091    1.01805    2.17518
   4.88377    2.45487   48.37190    1.02258    2.17813
   4.89379    2.47281   48.55344    1.02714    2.18109
   4.90381    2.49174   48.73879    1.03173    2.18401
   4.91383    2.51169   48.92543    1.03636    2.18708
   4.92385    2.53266   49.11270    1.04101    2.18997
   4.93387    2.55458   49.30298    1.04571    2.19300
   4.94389    2.57745   49.49605    1.05043    2.19590
   4.95391    2.60131   49.69087    1.05519    2.19893
   4.96393    2.62616   49.88718    1.05998    2.20205
   4.97395    2.65202   50.08590    1.06481    2.20504
   4.98397    2.67887   50.28890    1.06967    2.20804
   4.99399    2.70680   50.49371    1.07457    2.21109
   5.00401    2.73589   50.69849    1.07950    2.21416
   5.01403    2.76608   50.90821    1.08447    2.21731
   5.02405    2.79748   51.12102    1.08948    2.22035
   5.03407    2.83017   51.33656    1.09453    2.22352
   5.04409    2.86428   51.55212    1.09961    2.22663
   5.05411    2.89980   51.77284    1.10472    2.22985
   5.06413    2.93687   51.99668    1.10988    2.23289
   5.07415    2.97563   52.22324    1.11507    2.23602
   5.08417    3.01620   52.45290    1.12031    2.23928
   5.09419    3.05874   52.68515    1.12558    2.24251
   5.10421    3.10338   52.92226    1.13089    2.24568
   5.11423    3.15035   53.16251    1.13624    2.24887
   5.12425    3.19980   53.40958    1.14163    2.25300
   5.13427    3.25214   53.65704    1.14706    2.25630
   5.14429    3.30759   53.90769    1.15253    2.25958
   5.15431    3.36645   54.16333    1.15805    2.26281
   5.16433    3.42910   54.42425    1.16360    2.26613
   5.17435    3.49610   54.68613    1.16920    2.26944
   5.18437    3.56782   54.95245    1.17485    2.27276
   5.19439    3.64485   55.22432    1.18053    2.27606
   5.20441    3.72775   55.50370    1.18626    2.28034
   5.21443    3.81762   55.77802    1.19203    2.28367
   5.22445    3.91492   56.05861    1.19785    2.28705
   5.23447    4.02057   56.34419    1.20372    2.29041
   5.24449    4.13568   56.62902    1.20963    2.29383
   5.25451    4.26116   56.91274    1.21559    2.29726
   5.26453    4.39774   57.19994    1.22158    2.30155
   5.27455    4.54646   57.47856    1.22763    2.30502
   5.28457    4.70738   57.75516    1.23373    2.30856
   5.29459    4.88051   58.01823    1.23988    2.31199
   5.30461    5.06427   58.27317    1.24607    2.31635
   5.31463    5.25634   58.50761    1.25231    2.31991
   5.32465    5.45223   58.72152    1.25861    2.32342
   5.33467    5.64560   58.91292    1.26496    2.32699
   5.34469    5.82847   59.08220    1.27135    2.33141
   5.35471    5.99237   59.22704    1.27779    2.33498
   5.36473    6.12912   59.35948    1.28430    2.33857
   5.37475    6.23354   59.48449    1.29085    2.34224
   5.38477    6.30411   59.61706    1.29745    2.34668
   5.39479    6.34417   59.76143    1.30411    2.35031
   5.40481    6.35993   59.93227    1.31083    2.35398
   5.41483    6.35976   60.13284    1.31759    2.35847
   5.42485    6.35206   60.36007    1.32442    2.36220
   5.43487    6.34343   60.61350    1.33130    2.36590
   5.44489    6.33805   60.89804    1.33824    2.37051
   5.45491    6.33895   61.20008    1.34524    2.37418
   5.46493    6.34686   61.52482    1.35229    2.37808
   5.47495    6.36245   61.86789    1.35940    2.38275
   5.48497    6.38632   62.22977    1.36658    2.38645
   5.49499    6.41980   62.60807    1.37381    2.39020
   5.50501    6.46417   63.01369    1.38110    2.39504
   5.51503    6.52252   63.43013    1.38846    2.39878
   5.52505    6.59658   63.86943    1.39588    2.40264
   5.53507    6.68883   64.32639    1.40336    2.40744
   5.54509    6.80132   64.80230    1.41091    2.41134
   5.55511    6.93612   65.29308    1.41851    2.41614
   5.56513    7.09519   65.79759    1.42619    2.42004
   5.57515    7.28055   66.31367    1.43394    2.42394
   5.58517    7.49384   66.85030    1.44175    2.42878
   5.59519    7.73854   67.39006    1.44963    2.43287
   5.60521    8.01665   67.94732    1.45757    2.43771
   5.61523    8.33235   68.50982    1.46559    2.44165
   5.62525    8.68917   69.08361    1.47367    2.44660
   5.63527    9.09240   69.65729    1.48184    2.45062
   5.64529    9.54675   70.23636    1.49007    2.45561
   5.65531   10.05873   70.80856    1.49838    2.45970
   5.66533   10.63443   71.37328    1.50675    2.46469
   5.67535   11.28095   71.91541    1.51521    2.46877
   5.68537   12.00436   72.42767    1.52373    2.47376
   5.69539   12.81070   72.88833    1.53234    2.47793
   5.70541   13.70223   73.28474    1.54102    2.48304
   5.71543   14.67831   73.58630    1.54978    2.48720
   5.72545   15.73055   73.76940    1.55862    2.49225
   5.73547   16.84219   73.79527    1.56755    2.49650
   5.74549   17.98160   73.64165    1.57655    2.50165
   5.75551   19.10440   73.27842    1.58564    2.50587
   5.76553   20.15062   72.70044    1.59480    2.51106
   5.77555   21.05418   71.91040    1.60406    2.51540
   5.78557   21.74780   70.95508    1.61340    2.52058
   5.79559   22.18247   69.89094    1.62283    2.52490
   5.80561   22.33541   68.80176    1.63235    2.53015
   5.81563   22.21862   67.76402    1.64195    2.53541
   5.82565   21.87231   66.84740    1.65165    2.53983
   5.83567   21.35385   66.09934    1.66143    2.54513
   5.84569   20.72581   65.52963    1.67132    2.54950
   5.85571   20.04071   65.13802    1.68129    2.55488
   5.86573   19.33773   64.90652    1.69136    2.56024
   5.87575   18.64225   64.80655    1.70153    2.56468
   5.88577   17.96604   64.82044    1.71179    2.57015
   5.89579   17.31445   64.92291    1.72216    2.57457
   5.90581   16.68629   65.10939    1.73262    2.58002
   5.91583   16.08053   65.36786    1.74318    2.58550
   5.92585   15.49644   65.68922    1.75386    2.59010
   5.93587   14.93402   66.07885    1.76463    2.59562
   5.94589   14.39674   66.53452    1.77551    2.60111
   5.95591   13.89055   67.04903    1.78650    2.60568
   5.96593   13.42076   67.62667    1.79759    2.61131
   5.97595   12.99367   68.25800    1.80879    2.61686
   5.98597   12.61369   68.93458    1.82012    2.62154
   5.99599   12.28294   69.65354    1.83155    2.62713
   6.00601   12.00235   70.40589    1.84309    2.63274
   6.01603   11.77176   71.18141    1.85476    2.63746
   6.02605   11.58927   71.97890    1.86654    2.64313
   6.03607   11.45302   72.79375    1.87844    2.64883
   6.04609   11.36110   73.62118    1.89046    2.65454
   6.05611   11.31219   74.45209    1.90261    2.65930
   6.06613   11.30382   75.29263    1.91488    2.66508
   6.07615   11.33484   76.13751    1.92727    2.67086
   6.08617   11.40426   76.98239    1.93980    2.67664
   6.09619   11.51115   77.82183    1.95247    2.68146
   6.10621   11.65373   78.65760    1.96525    2.68724
   6.11623   11.83029   79.48384    1.97817    2.69310
   6.12625   12.03799   80.29674    1.99123    2.69904
   6.13627   12.27287   81.08781    2.00444    2.70391
   6.14629   12.52827   81.85814    2.01778    2.70979
   6.15631   12.79613   82.60291    2.03126    2.71565
   6.16633   13.06643   83.32478    2.04488    2.72162
   6.17635   13.32927   84.02312    2.05865    2.72748
   6.18637   13.57545   84.70663    2.07258    2.73249
   6.19639   13.79904   85.38625    2.08665    2.73850
   6.20641   13.99801   86.07635    2.10087    2.74442
   6.21643   14.17527   86.78567    2.11525    2.75051
   6.22645   14.33662   87.52418    2.12978    2.75652
   6.23647   14.49027   88.29327    2.14449    2.76153
   6.24649   14.64313   89.10693    2.15935    2.76760
   6.25651   14.80401   89.96011    2.17438    2.77365
