#                                                           
#  __  __   ________   ___ __ __    _______   ______        
# /_/\/_/\ /_______/\ /__//_//_/\ /_______/\ /_____/\       
# \ \ \ \ \\::: _  \ \\::\| \| \ \\::: _  \ \\:::_ \ \      
#  \:\_\ \ \\::(_)  \ \\:.      \ \\::(_)  \/_\:\ \ \ \     
#   \::::_\/ \:: __  \ \\:.\-/\  \ \\::  _  \ \\:\ \ \ \    
#     \::\ \  \:.\ \  \ \\. \  \  \ \\::(_)  \ \\:\_\ \ \   
#      \__\/   \__\/\__\/ \__\/ \__\/ \_______\/ \_____\/   
#                                                           
#                                                           
#        Version 4.3.0 Revision 15341 Hash c146fb2          
#                      MPI+SLK Build                        
#                http://www.yambo-code.org                  
#
# Absorption @ Q(2) [iku] : 0.500000  0.250000  0.000000
#
#
# - Energies      are Teter 93(XC)
# - Wavefunctions are Teter 93(XC)
#
# - The Green`s function is Resonant -
#
#   BSK|Identifier              :1700
#      |Dimension               :96
#      |Bands                   :3 - 10
#      |Exchange           [res]: yes
#      |Correlation        [res]: no
#      |Kernel`s coupling       : no
#      |Exchange           [cpl]: no
#      |Correlation        [cpl]: no
#      |W interaction is bare   : no
#      |ALDA kernel in R-space  : no
#      |RL vectors    [exchange]:63
#      |E/h energy range    [ev]:-1.000000 - -1.000000
#      |Coupling range     [o/o]: 100.0000 -  100.0000
#
#    E/ev[1]      EPS-Im[2]    EPS-Re[3]    EPSo-Im[4]   EPSo-Re[5]
#
   -10.00       0.6834E-3     1.121       0.7494E-3     1.126   
   -9.990       0.6842E-3     1.121       0.7503E-3     1.126   
   -9.980       0.6850E-3     1.121       0.7512E-3     1.126   
   -9.970       0.6857E-3     1.121       0.7522E-3     1.126   
   -9.960       0.6865E-3     1.121       0.7531E-3     1.126   
   -9.950       0.6873E-3     1.121       0.7540E-3     1.127   
   -9.940       0.6881E-3     1.121       0.7549E-3     1.127   
   -9.930       0.6889E-3     1.121       0.7558E-3     1.127   
   -9.920       0.6897E-3     1.121       0.7567E-3     1.127   
   -9.910       0.6905E-3     1.121       0.7576E-3     1.127   
   -9.900       0.6913E-3     1.121       0.7586E-3     1.127   
   -9.890       0.6921E-3     1.121       0.7595E-3     1.127   
   -9.880       0.6929E-3     1.122       0.7604E-3     1.127   
   -9.870       0.6937E-3     1.122       0.7613E-3     1.127   
   -9.860       0.6945E-3     1.122       0.7623E-3     1.127   
   -9.850       0.6953E-3     1.122       0.7632E-3     1.127   
   -9.840       0.6961E-3     1.122       0.7641E-3     1.127   
   -9.830       0.6969E-3     1.122       0.7650E-3     1.127   
   -9.820       0.6977E-3     1.122       0.7660E-3     1.128   
   -9.810       0.6985E-3     1.122       0.7669E-3     1.128   
   -9.800       0.6993E-3     1.122       0.7679E-3     1.128   
   -9.790       0.7001E-3     1.122       0.7688E-3     1.128   
   -9.780       0.7010E-3     1.122       0.7697E-3     1.128   
   -9.770       0.7018E-3     1.122       0.7707E-3     1.128   
   -9.760       0.7026E-3     1.122       0.7716E-3     1.128   
   -9.750       0.7034E-3     1.122       0.7726E-3     1.128   
   -9.740       0.7042E-3     1.123       0.7735E-3     1.128   
   -9.730       0.7050E-3     1.123       0.7745E-3     1.128   
   -9.720       0.7059E-3     1.123       0.7754E-3     1.128   
   -9.710       0.7067E-3     1.123       0.7764E-3     1.128   
   -9.700       0.7075E-3     1.123       0.7773E-3     1.128   
   -9.690       0.7083E-3     1.123       0.7783E-3     1.129   
   -9.680       0.7092E-3     1.123       0.7792E-3     1.129   
   -9.670       0.7100E-3     1.123       0.7802E-3     1.129   
   -9.660       0.7108E-3     1.123       0.7812E-3     1.129   
   -9.650       0.7117E-3     1.123       0.7821E-3     1.129   
   -9.640       0.7125E-3     1.123       0.7831E-3     1.129   
   -9.630       0.7133E-3     1.123       0.7840E-3     1.129   
   -9.620       0.7142E-3     1.123       0.7850E-3     1.129   
   -9.610       0.7150E-3     1.123       0.7860E-3     1.129   
   -9.600       0.7158E-3     1.124       0.7870E-3     1.129   
   -9.590       0.7167E-3     1.124       0.7879E-3     1.129   
   -9.580       0.7175E-3     1.124       0.7889E-3     1.129   
   -9.570       0.7184E-3     1.124       0.7899E-3     1.129   
   -9.560       0.7192E-3     1.124       0.7909E-3     1.130   
   -9.550       0.7201E-3     1.124       0.7919E-3     1.130   
   -9.540       0.7209E-3     1.124       0.7928E-3     1.130   
   -9.530       0.7218E-3     1.124       0.7938E-3     1.130   
   -9.520       0.7226E-3     1.124       0.7948E-3     1.130   
   -9.510       0.7235E-3     1.124       0.7958E-3     1.130   
   -9.500       0.7243E-3     1.124       0.7968E-3     1.130   
   -9.490       0.7252E-3     1.124       0.7978E-3     1.130   
   -9.480       0.7260E-3     1.124       0.7988E-3     1.130   
   -9.470       0.7269E-3     1.124       0.7998E-3     1.130   
   -9.460       0.7278E-3     1.125       0.8008E-3     1.130   
   -9.450       0.7286E-3     1.125       0.8018E-3     1.130   
   -9.440       0.7295E-3     1.125       0.8028E-3     1.131   
   -9.430       0.7303E-3     1.125       0.8038E-3     1.131   
   -9.420       0.7312E-3     1.125       0.8048E-3     1.131   
   -9.410       0.7321E-3     1.125       0.8058E-3     1.131   
   -9.400       0.7329E-3     1.125       0.8068E-3     1.131   
   -9.390       0.7338E-3     1.125       0.8078E-3     1.131   
   -9.380       0.7347E-3     1.125       0.8088E-3     1.131   
   -9.370       0.7356E-3     1.125       0.8098E-3     1.131   
   -9.360       0.7364E-3     1.125       0.8109E-3     1.131   
   -9.350       0.7373E-3     1.125       0.8119E-3     1.131   
   -9.340       0.7382E-3     1.125       0.8129E-3     1.131   
   -9.330       0.7391E-3     1.125       0.8139E-3     1.131   
   -9.320       0.7400E-3     1.126       0.8150E-3     1.131   
   -9.310       0.7408E-3     1.126       0.8160E-3     1.132   
   -9.300       0.7417E-3     1.126       0.8170E-3     1.132   
   -9.290       0.7426E-3     1.126       0.8180E-3     1.132   
   -9.280       0.7435E-3     1.126       0.8191E-3     1.132   
   -9.270       0.7444E-3     1.126       0.8201E-3     1.132   
   -9.260       0.7453E-3     1.126       0.8212E-3     1.132   
   -9.250       0.7462E-3     1.126       0.8222E-3     1.132   
   -9.240       0.7471E-3     1.126       0.8232E-3     1.132   
   -9.230       0.7480E-3     1.126       0.8243E-3     1.132   
   -9.220       0.7489E-3     1.126       0.8253E-3     1.132   
   -9.210       0.7498E-3     1.126       0.8264E-3     1.132   
   -9.200       0.7507E-3     1.126       0.8274E-3     1.132   
   -9.190       0.7516E-3     1.127       0.8285E-3     1.133   
   -9.180       0.7525E-3     1.127       0.8295E-3     1.133   
   -9.170       0.7534E-3     1.127       0.8306E-3     1.133   
   -9.160       0.7543E-3     1.127       0.8316E-3     1.133   
   -9.150       0.7552E-3     1.127       0.8327E-3     1.133   
   -9.140       0.7561E-3     1.127       0.8338E-3     1.133   
   -9.130       0.7570E-3     1.127       0.8348E-3     1.133   
   -9.120       0.7580E-3     1.127       0.8359E-3     1.133   
   -9.110       0.7589E-3     1.127       0.8370E-3     1.133   
   -9.100       0.7598E-3     1.127       0.8380E-3     1.133   
   -9.090       0.7607E-3     1.127       0.8391E-3     1.133   
   -9.080       0.7616E-3     1.127       0.8402E-3     1.133   
   -9.070       0.7626E-3     1.127       0.8413E-3     1.134   
   -9.060       0.7635E-3     1.128       0.8423E-3     1.134   
   -9.050       0.7644E-3     1.128       0.8434E-3     1.134   
   -9.040       0.7653E-3     1.128       0.8445E-3     1.134   
   -9.030       0.7663E-3     1.128       0.8456E-3     1.134   
   -9.020       0.7672E-3     1.128       0.8467E-3     1.134   
   -9.010       0.7681E-3     1.128       0.8478E-3     1.134   
   -9.000       0.7691E-3     1.128       0.8488E-3     1.134   
   -8.990       0.7700E-3     1.128       0.8499E-3     1.134   
   -8.980       0.7710E-3     1.128       0.8510E-3     1.134   
   -8.970       0.7719E-3     1.128       0.8521E-3     1.134   
   -8.960       0.7728E-3     1.128       0.8532E-3     1.134   
   -8.950       0.7738E-3     1.128       0.8543E-3     1.135   
   -8.940       0.7747E-3     1.128       0.8554E-3     1.135   
   -8.930       0.7757E-3     1.129       0.8565E-3     1.135   
   -8.920       0.7766E-3     1.129       0.8577E-3     1.135   
   -8.910       0.7776E-3     1.129       0.8588E-3     1.135   
   -8.900       0.7785E-3     1.129       0.8599E-3     1.135   
   -8.890       0.7795E-3     1.129       0.8610E-3     1.135   
   -8.880       0.7804E-3     1.129       0.8621E-3     1.135   
   -8.870       0.7814E-3     1.129       0.8632E-3     1.135   
   -8.860       0.7824E-3     1.129       0.8644E-3     1.135   
   -8.850       0.7833E-3     1.129       0.8655E-3     1.135   
   -8.840       0.7843E-3     1.129       0.8666E-3     1.136   
   -8.830       0.7853E-3     1.129       0.8677E-3     1.136   
   -8.820       0.7862E-3     1.129       0.8689E-3     1.136   
   -8.810       0.7872E-3     1.129       0.8700E-3     1.136   
   -8.800       0.7882E-3     1.130       0.8711E-3     1.136   
   -8.790       0.7891E-3     1.130       0.8723E-3     1.136   
   -8.780       0.7901E-3     1.130       0.8734E-3     1.136   
   -8.770       0.7911E-3     1.130       0.8745E-3     1.136   
   -8.760       0.7921E-3     1.130       0.8757E-3     1.136   
   -8.750       0.7931E-3     1.130       0.8768E-3     1.136   
   -8.740       0.7940E-3     1.130       0.8780E-3     1.136   
   -8.730       0.7950E-3     1.130       0.8791E-3     1.136   
   -8.720       0.7960E-3     1.130       0.8803E-3     1.137   
   -8.710       0.7970E-3     1.130       0.8814E-3     1.137   
   -8.700       0.7980E-3     1.130       0.8826E-3     1.137   
   -8.690       0.7990E-3     1.130       0.8838E-3     1.137   
   -8.680       0.8000E-3     1.130       0.8849E-3     1.137   
   -8.670       0.8010E-3     1.131       0.8861E-3     1.137   
   -8.660       0.8020E-3     1.131       0.8873E-3     1.137   
   -8.650       0.8030E-3     1.131       0.8884E-3     1.137   
   -8.640       0.8040E-3     1.131       0.8896E-3     1.137   
   -8.630       0.8050E-3     1.131       0.8908E-3     1.137   
   -8.620       0.8060E-3     1.131       0.8920E-3     1.137   
   -8.610       0.8070E-3     1.131       0.8931E-3     1.138   
   -8.600       0.8080E-3     1.131       0.8943E-3     1.138   
   -8.590       0.8090E-3     1.131       0.8955E-3     1.138   
   -8.580       0.8100E-3     1.131       0.8967E-3     1.138   
   -8.570       0.8110E-3     1.131       0.8979E-3     1.138   
   -8.560       0.8120E-3     1.131       0.8991E-3     1.138   
   -8.550       0.8131E-3     1.132       0.9003E-3     1.138   
   -8.540       0.8141E-3     1.132       0.9015E-3     1.138   
   -8.530       0.8151E-3     1.132       0.9027E-3     1.138   
   -8.520       0.8161E-3     1.132       0.9039E-3     1.138   
   -8.510       0.8172E-3     1.132       0.9051E-3     1.138   
   -8.500       0.8182E-3     1.132       0.9063E-3     1.139   
   -8.490       0.8192E-3     1.132       0.9075E-3     1.139   
   -8.480       0.8202E-3     1.132       0.9087E-3     1.139   
   -8.470       0.8213E-3     1.132       0.9099E-3     1.139   
   -8.460       0.8223E-3     1.132       0.9111E-3     1.139   
   -8.450       0.8234E-3     1.132       0.9123E-3     1.139   
   -8.440       0.8244E-3     1.132       0.9135E-3     1.139   
   -8.430       0.8254E-3     1.133       0.9148E-3     1.139   
   -8.420       0.8265E-3     1.133       0.9160E-3     1.139   
   -8.410       0.8275E-3     1.133       0.9172E-3     1.139   
   -8.400       0.8286E-3     1.133       0.9185E-3     1.139   
   -8.390       0.8296E-3     1.133       0.9197E-3     1.140   
   -8.380       0.8307E-3     1.133       0.9209E-3     1.140   
   -8.370       0.8317E-3     1.133       0.9222E-3     1.140   
   -8.360       0.8328E-3     1.133       0.9234E-3     1.140   
   -8.350       0.8338E-3     1.133       0.9246E-3     1.140   
   -8.340       0.8349E-3     1.133       0.9259E-3     1.140   
   -8.330       0.8360E-3     1.133       0.9271E-3     1.140   
   -8.320       0.8370E-3     1.133       0.9284E-3     1.140   
   -8.310       0.8381E-3     1.134       0.9296E-3     1.140   
   -8.300       0.8392E-3     1.134       0.9309E-3     1.140   
   -8.290       0.8402E-3     1.134       0.9322E-3     1.140   
   -8.280       0.8413E-3     1.134       0.9334E-3     1.141   
   -8.270       0.8424E-3     1.134       0.9347E-3     1.141   
   -8.260       0.8435E-3     1.134       0.9360E-3     1.141   
   -8.250       0.8445E-3     1.134       0.9372E-3     1.141   
   -8.240       0.8456E-3     1.134       0.9385E-3     1.141   
   -8.230       0.8467E-3     1.134       0.9398E-3     1.141   
   -8.220       0.8478E-3     1.134       0.9410E-3     1.141   
   -8.210       0.8489E-3     1.134       0.9423E-3     1.141   
   -8.200       0.8500E-3     1.134       0.9436E-3     1.141   
   -8.190       0.8511E-3     1.135       0.9449E-3     1.141   
   -8.180       0.8522E-3     1.135       0.9462E-3     1.142   
   -8.170       0.8532E-3     1.135       0.9475E-3     1.142   
   -8.160       0.8543E-3     1.135       0.9488E-3     1.142   
   -8.150       0.8554E-3     1.135       0.9501E-3     1.142   
   -8.140       0.8565E-3     1.135       0.9514E-3     1.142   
   -8.130       0.8577E-3     1.135       0.9527E-3     1.142   
   -8.120       0.8588E-3     1.135       0.9540E-3     1.142   
   -8.110       0.8599E-3     1.135       0.9553E-3     1.142   
   -8.100       0.8610E-3     1.135       0.9566E-3     1.142   
   -8.090       0.8621E-3     1.135       0.9579E-3     1.142   
   -8.080       0.8632E-3     1.135       0.9592E-3     1.142   
   -8.070       0.8643E-3     1.136       0.9605E-3     1.143   
   -8.060       0.8654E-3     1.136       0.9618E-3     1.143   
   -8.050       0.8666E-3     1.136       0.9632E-3     1.143   
   -8.040       0.8677E-3     1.136       0.9645E-3     1.143   
   -8.030       0.8688E-3     1.136       0.9658E-3     1.143   
   -8.020       0.8699E-3     1.136       0.9671E-3     1.143   
   -8.010       0.8711E-3     1.136       0.9685E-3     1.143   
   -8.000       0.8722E-3     1.136       0.9698E-3     1.143   
   -7.990       0.8733E-3     1.136       0.9712E-3     1.143   
   -7.980       0.8745E-3     1.136       0.9725E-3     1.143   
   -7.970       0.8756E-3     1.136       0.9738E-3     1.144   
   -7.960       0.8768E-3     1.137       0.9752E-3     1.144   
   -7.950       0.8779E-3     1.137       0.9765E-3     1.144   
   -7.940       0.8791E-3     1.137       0.9779E-3     1.144   
   -7.930       0.8802E-3     1.137       0.9793E-3     1.144   
   -7.920       0.8814E-3     1.137       0.9806E-3     1.144   
   -7.910       0.8825E-3     1.137       0.9820E-3     1.144   
   -7.900       0.8837E-3     1.137       0.9833E-3     1.144   
   -7.890       0.8848E-3     1.137       0.9847E-3     1.144   
   -7.880       0.8860E-3     1.137       0.9861E-3     1.144   
   -7.870       0.8871E-3     1.137       0.9875E-3     1.145   
   -7.860       0.8883E-3     1.137       0.9888E-3     1.145   
   -7.850       0.8895E-3     1.137       0.9902E-3     1.145   
   -7.840       0.8906E-3     1.138       0.9916E-3     1.145   
   -7.830       0.8918E-3     1.138       0.9930E-3     1.145   
   -7.820       0.8930E-3     1.138       0.9944E-3     1.145   
   -7.810       0.8942E-3     1.138       0.9958E-3     1.145   
   -7.800       0.8953E-3     1.138       0.9972E-3     1.145   
   -7.790       0.8965E-3     1.138       0.9986E-3     1.145   
   -7.780       0.8977E-3     1.138       0.1000E-2     1.145   
   -7.770       0.8989E-3     1.138       0.1001E-2     1.145   
   -7.760       0.9001E-3     1.138       0.1003E-2     1.146   
   -7.750       0.9013E-3     1.138       0.1004E-2     1.146   
   -7.740       0.9025E-3     1.138       0.1006E-2     1.146   
   -7.730       0.9037E-3     1.139       0.1007E-2     1.146   
   -7.720       0.9049E-3     1.139       0.1008E-2     1.146   
   -7.710       0.9061E-3     1.139       0.1010E-2     1.146   
   -7.700       0.9073E-3     1.139       0.1011E-2     1.146   
   -7.690       0.9085E-3     1.139       0.1013E-2     1.146   
   -7.680       0.9097E-3     1.139       0.1014E-2     1.146   
   -7.670       0.9109E-3     1.139       0.1016E-2     1.147   
   -7.660       0.9121E-3     1.139       0.1017E-2     1.147   
   -7.650       0.9133E-3     1.139       0.1018E-2     1.147   
   -7.640       0.9145E-3     1.139       0.1020E-2     1.147   
   -7.630       0.9158E-3     1.139       0.1021E-2     1.147   
   -7.620       0.9170E-3     1.140       0.1023E-2     1.147   
   -7.610       0.9182E-3     1.140       0.1024E-2     1.147   
   -7.600       0.9194E-3     1.140       0.1026E-2     1.147   
   -7.590       0.9207E-3     1.140       0.1027E-2     1.147   
   -7.580       0.9219E-3     1.140       0.1029E-2     1.147   
   -7.570       0.9231E-3     1.140       0.1030E-2     1.148   
   -7.560       0.9244E-3     1.140       0.1032E-2     1.148   
   -7.550       0.9256E-3     1.140       0.1033E-2     1.148   
   -7.540       0.9269E-3     1.140       0.1034E-2     1.148   
   -7.530       0.9281E-3     1.140       0.1036E-2     1.148   
   -7.520       0.9294E-3     1.140       0.1037E-2     1.148   
   -7.510       0.9306E-3     1.141       0.1039E-2     1.148   
   -7.500       0.9319E-3     1.141       0.1040E-2     1.148   
   -7.490       0.9331E-3     1.141       0.1042E-2     1.148   
   -7.480       0.9344E-3     1.141       0.1043E-2     1.148   
   -7.470       0.9356E-3     1.141       0.1045E-2     1.149   
   -7.460       0.9369E-3     1.141       0.1046E-2     1.149   
   -7.450       0.9382E-3     1.141       0.1048E-2     1.149   
   -7.440       0.9394E-3     1.141       0.1049E-2     1.149   
   -7.430       0.9407E-3     1.141       0.1051E-2     1.149   
   -7.420       0.9420E-3     1.141       0.1052E-2     1.149   
   -7.410       0.9432E-3     1.142       0.1054E-2     1.149   
   -7.400       0.9445E-3     1.142       0.1055E-2     1.149   
   -7.390       0.9458E-3     1.142       0.1057E-2     1.149   
   -7.380       0.9471E-3     1.142       0.1059E-2     1.150   
   -7.370       0.9484E-3     1.142       0.1060E-2     1.150   
   -7.360       0.9497E-3     1.142       0.1062E-2     1.150   
   -7.350       0.9510E-3     1.142       0.1063E-2     1.150   
   -7.340       0.9523E-3     1.142       0.1065E-2     1.150   
   -7.330       0.9536E-3     1.142       0.1066E-2     1.150   
   -7.320       0.9549E-3     1.142       0.1068E-2     1.150   
   -7.310       0.9562E-3     1.142       0.1069E-2     1.150   
   -7.300       0.9575E-3     1.143       0.1071E-2     1.150   
   -7.290       0.9588E-3     1.143       0.1072E-2     1.150   
   -7.280       0.9601E-3     1.143       0.1074E-2     1.151   
   -7.270       0.9614E-3     1.143       0.1076E-2     1.151   
   -7.260       0.9627E-3     1.143       0.1077E-2     1.151   
   -7.250       0.9640E-3     1.143       0.1079E-2     1.151   
   -7.240       0.9654E-3     1.143       0.1080E-2     1.151   
   -7.230       0.9667E-3     1.143       0.1082E-2     1.151   
   -7.220       0.9680E-3     1.143       0.1083E-2     1.151   
   -7.210       0.9693E-3     1.143       0.1085E-2     1.151   
   -7.200       0.9707E-3     1.144       0.1087E-2     1.151   
   -7.190       0.9720E-3     1.144       0.1088E-2     1.152   
   -7.180       0.9733E-3     1.144       0.1090E-2     1.152   
