#  __      __   ______   __       __  _______    ______               
# |  \    /  \ /      \ |  \     /  \|       \  /      \              
#  \$$\  /  $$|  $$$$$$\| $$\   /  $$| $$$$$$$\|  $$$$$$\             
#   \$$\/  $$ | $$__| $$| $$$\ /  $$$| $$__/ $$| $$  | $$             
#    \$$  $$  | $$    $$| $$$$\  $$$$| $$    $$| $$  | $$             
#     \$$$$   | $$$$$$$$| $$\$$ $$ $$| $$$$$$$\| $$  | $$             
#     | $$    | $$  | $$| $$ \$$$| $$| $$__/ $$| $$__/ $$             
#     | $$    | $$  | $$| $$  \$ | $$| $$    $$ \$$    $$             
#      \$$     \$$   \$$ \$$      \$$ \$$$$$$$   \$$$$$$              
#                                                                     
# Version 5.2.0 Revision 22506 Hash (prev commit) baac8a203           
#                Branch is fixes-issue-540                            
#         MPI+OpenMP+SLK+SLEPC+HDF5_MPI_IO Build                      
#                http://www.yambo-code.org                            
#
# Polarizability  ( -<<X>> ) @ Q(1):   1.00000000      0.00000000      0.00000000    [q->0 direction]
#
# Polarizability units: length
#
# [GEN] GF Energies                               : Slater exchange(X)+Perdew & Zunger(C)
# [GEN] Green`s Function                          : Retarded
#
# [GEN] Gauge                                     : Length
# [GEN] [r,Vnl] included                          : yes
#
# DIP band range                                  :  11  15
# DIP band range limits                           :  13  14
# DIP e/h energy range                            :  -1.00000000     -1.00000000    [eV]
# RL vectors in the sum                           :   8845
# [r,Vnl] included                                : yes
# Bands ordered                                   : yes
# Direct v evaluation                             : no
# Approach used                                   : G-space v
# Dipoles computed                                : R V P
# Wavefunctions                                   : Slater exchange(X)+Perdew & Zunger(C)
#
#
# [K] Identifier                                  :   9826
# [K] Dimension                                   :   54
# [K] Bands                                       :  11  15
# [K] Exchange res                                : yes
# [K] Correlation res                             : no
# [K] Kernel`s coupling                           : no
# [K] Exchange cpl                                : no
# [K] Correlation cpl                             : no
# [K] W interaction is bare                       : no
# [K] ALDA kernel in R-space                      : no
# [K] RL vectors exchange                         :  109
# [K] E/h energy range                            :  -1.00000000     -1.00000000    [eV]
#                                                 
# [Haydock] Accuracy (requested)                  :  0.100000005E-2 [o/o]
# [Haydock] Accuracy (reached)                    :  0.202309107E-3 [o/o]
# [Haydock] Iterations                            :  22
#
#
#    E[1] [eV]          Im(alpha)          Re(alpha)          Im(alpha_o)        Re(alpha_o)        Im(alpha`)         Re(alpha`)
#
       -1.000000          -0.348126           14.31735          -0.437489           15.43100          -0.348126           14.31735
       -0.976000          -0.329774           14.15555          -0.412571           15.22836          -0.329774           14.15555
       -0.952000          -0.312589           14.00220          -0.389420           15.03712          -0.312589           14.00220
       -0.928000          -0.296464           13.85677          -0.367858           14.85648          -0.296464           13.85677
       -0.904000          -0.281302           13.71879          -0.347730           14.68574          -0.281302           13.71879
       -0.880000          -0.267020           13.58781          -0.328898           14.52427          -0.267020           13.58781
       -0.856000          -0.253540           13.46344          -0.311242           14.37145          -0.253540           13.46344
       -0.832000          -0.240795           13.34532          -0.294654           14.22679          -0.240795           13.34532
       -0.808000          -0.228723           13.23311          -0.279036           14.08979          -0.228723           13.23311
       -0.784000          -0.217268           13.12650          -0.264304           13.96001          -0.217268           13.12650
       -0.760000          -0.206380           13.02523          -0.250380           13.83705          -0.206380           13.02523
       -0.736000          -0.196014           12.92902          -0.237194           13.72055          -0.196014           12.92902
       -0.712000          -0.186128           12.83765          -0.224685           13.61018          -0.186128           12.83765
       -0.688000          -0.176685           12.75089          -0.212797           13.50562          -0.176685           12.75089
       -0.664000          -0.167651           12.66853          -0.201477           13.40659          -0.167651           12.66853
       -0.640000          -0.158993           12.59041          -0.190680           13.31285          -0.158993           12.59041
       -0.616000          -0.150684           12.51633          -0.180364           13.22414          -0.150684           12.51633
       -0.592000          -0.142697           12.44615          -0.170490           13.14024          -0.142697           12.44615
       -0.568000          -0.135007           12.37971          -0.161023           13.06097          -0.135007           12.37971
       -0.544000          -0.127593           12.31688          -0.151931           12.98612          -0.127593           12.31688
       -0.520000          -0.120433           12.25753          -0.143183           12.91554          -0.120433           12.25753
       -0.496000          -0.113508           12.20155          -0.134754           12.84906          -0.113508           12.20155
       -0.472000          -0.106800           12.14883          -0.126618           12.78653          -0.106800           12.14883
       -0.448000          -0.100292           12.09927          -0.118750           12.72784          -0.100292           12.09927
       -0.424000          -0.093969           12.05278          -0.111130           12.67284          -0.093969           12.05278
       -0.400000          -0.087817           12.00927          -0.103738           12.62143          -0.087817           12.00927
       -0.376000          -0.081821           11.96867          -0.096555           12.57351          -0.081821           11.96867
       -0.352000          -0.075969           11.93090          -0.089562           12.52898          -0.075969           11.93090
       -0.328000          -0.070249           11.89590          -0.082744           12.48774          -0.070249           11.89590
       -0.304000          -0.064648           11.86361          -0.076085           12.44974          -0.064648           11.86361
       -0.280000          -0.059157           11.83397          -0.069569           12.41488          -0.059157           11.83397
       -0.256000          -0.053765           11.80694          -0.063184           12.38311          -0.053765           11.80694
       -0.232000          -0.048461           11.78247          -0.056916           12.35437          -0.048461           11.78247
       -0.208000          -0.043238           11.76051          -0.050753           12.32860          -0.043238           11.76051
       -0.184000          -0.038084           11.74105          -0.044681           12.30576          -0.038084           11.74105
       -0.160000          -0.032991           11.72403          -0.038690           12.28580          -0.032991           11.72403
       -0.136000          -0.027952           11.70944          -0.032767           12.26870          -0.027952           11.70944
       -0.112000          -0.022957           11.69725          -0.026903           12.25442          -0.022957           11.69725
       -0.088000          -0.017998           11.68745          -0.021087           12.24293          -0.017998           11.68745
       -0.064000          -0.013068           11.68001          -0.015308           12.23422          -0.013068           11.68001
       -0.040000          -0.008158           11.67492          -0.009555           12.22827          -0.008158           11.67492
       -0.016000          -0.003261           11.67219          -0.003820           12.22507          -0.003261           11.67219
        0.008000           0.001630           11.67180           0.001910           12.22461           0.001630           11.67180
        0.032000           0.006525           11.67375           0.007642           12.22690           0.006525           11.67375
        0.056000           0.011429           11.67805           0.013388           12.23193           0.011429           11.67805
        0.080000           0.016352           11.68470           0.019157           12.23972           0.016352           11.68470
        0.104000           0.021300           11.69372           0.024960           12.25028           0.021300           11.69372
        0.128000           0.026282           11.70511           0.030807           12.26363           0.026282           11.70511
        0.152000           0.031306           11.71890           0.036708           12.27979           0.031306           11.71890
        0.176000           0.036380           11.73510           0.042675           12.29879           0.036380           11.73510
        0.200000           0.041512           11.75375           0.048719           12.32066           0.041512           11.75375
        0.224000           0.046712           11.77487           0.054851           12.34545           0.046712           11.77487
        0.248000           0.051988           11.79850           0.061083           12.37319           0.051988           11.79850
        0.272000           0.057349           11.82467           0.067427           12.40395           0.057349           11.82467
        0.296000           0.062806           11.85344           0.073897           12.43777           0.062806           11.85344
        0.320000           0.068369           11.88484           0.080507           12.47472           0.068369           11.88484
        0.344000           0.074048           11.91893           0.087271           12.51487           0.074048           11.91893
        0.368000           0.079855           11.95577           0.094203           12.55829           0.079855           11.95577
        0.392000           0.085801           11.99542           0.101321           12.60508           0.085801           11.99542
        0.416000           0.091900           12.03795           0.108642           12.65531           0.091900           12.03795
        0.440000           0.098165           12.08344           0.116184           12.70910           0.098165           12.08344
        0.464000           0.104609           12.13196           0.123966           12.76655           0.104609           12.13196
        0.488000           0.111248           12.18362           0.132011           12.82779           0.111248           12.18362
        0.512000           0.118099           12.23850           0.140340           12.89293           0.118099           12.23850
        0.536000           0.125179           12.29671           0.148978           12.96213           0.125179           12.29671
        0.560000           0.132507           12.35837           0.157952           13.03553           0.132507           12.35837
        0.584000           0.140102           12.42359           0.167291           13.11331           0.140102           12.42359
        0.608000           0.147987           12.49251           0.177025           13.19565           0.147987           12.49251
        0.632000           0.156186           12.56527           0.187190           13.28273           0.156186           12.56527
        0.656000           0.164724           12.64203           0.197822           13.37477           0.164724           12.64203
        0.680000           0.173630           12.72296           0.208963           13.47201           0.173630           12.72296
        0.704000           0.182933           12.80823           0.220656           13.57469           0.182933           12.80823
        0.728000           0.192667           12.89804           0.232952           13.68309           0.192667           12.89804
        0.752000           0.202869           12.99261           0.245906           13.79752           0.202869           12.99261
        0.776000           0.213578           13.09217           0.259576           13.91828           0.213578           13.09217
        0.800000           0.224838           13.19696           0.274031           14.04574           0.224838           13.19696
        0.824000           0.236699           13.30727           0.289344           14.18029           0.236699           13.30727
        0.848000           0.249214           13.42339           0.305599           14.32235           0.249214           13.42339
        0.872000           0.262441           13.54564           0.322888           14.47239           0.262441           13.54564
        0.896000           0.276448           13.67437           0.341315           14.63092           0.276448           13.67437
        0.920000           0.291307           13.80997           0.360996           14.79850           0.291307           13.80997
        0.944000           0.307101           13.95287           0.382064           14.97576           0.307101           13.95287
        0.968000           0.323921           14.10353           0.404667           15.16339           0.323921           14.10353
        0.992000           0.341871           14.26244           0.428975           15.36213           0.341871           14.26244
        1.016000           0.361067           14.43018           0.455180           15.57285           0.361067           14.43018
        1.040000           0.381640           14.60736           0.483504           15.79649           0.381640           14.60736
        1.064000           0.403738           14.79467           0.514198           16.03408           0.403738           14.79467
        1.088000           0.427530           14.99286           0.547556           16.28683           0.427530           14.99286
        1.112000           0.453210           15.20277           0.583913           16.55602           0.453210           15.20277
        1.136000           0.480997           15.42533           0.623664           16.84317           0.480997           15.42533
        1.160000           0.511147           15.66160           0.667265           17.14996           0.511147           15.66160
        1.184000           0.543951           15.91274           0.715256           17.47830           0.543951           15.91274
        1.208000           0.579749           16.18008           0.768272           17.83037           0.579749           16.18008
        1.232000           0.618937           16.46510           0.827066           18.20867           0.618937           16.46510
        1.256000           0.661978           16.76949           0.892539           18.61605           0.661978           16.76949
        1.280000           0.709416           17.09514           0.965775           19.05584           0.709416           17.09514
        1.304000           0.761896           17.44426           1.048082           19.53189           0.761896           17.44426
        1.328000           0.820184           17.81935           1.141063           20.04869           0.820184           17.81935
        1.352000           0.885198           18.22328           1.246683           20.61152           0.885198           18.22328
        1.376000           0.958044           18.65938           1.367383           21.22664           0.958044           18.65938
        1.400000           1.040066           19.13156           1.506218           21.90149           1.040066           19.13156
        1.424000           1.132905           19.64435           1.667062           22.64499           1.132905           19.64435
        1.448000           1.238592           20.20310           1.854871           23.46794           1.238592           20.20310
        1.472000           1.359650           20.81416           2.076072           24.38352           1.359650           20.81416
        1.496000           1.499256           21.48510           2.339120           25.40798           1.499256           21.48510
        1.520000           1.661449           22.22506           2.655310           26.56154           1.661449           22.22506
        1.544000           1.851425           23.04509           3.039983           27.86964           1.851425           23.04509
        1.568000           2.075958           23.95877           3.514395           29.36470           2.075958           23.95877
        1.592000           2.344009           24.98284           4.108639           31.08852           2.344009           24.98284
        1.616000           2.667621           26.13829           4.866378           33.09571           2.667621           26.13829
        1.640000           3.063279           27.45159           5.852775           35.45856           3.063279           27.45159
        1.664000           3.553999           28.95666           7.168237           38.27372           3.553999           28.95666
        1.688000           4.172675           30.69746           8.973344           41.67122           4.172675           30.69746
        1.712000           4.967526           32.73168           11.53584           45.82447           4.967526           32.73168
        1.736000           6.011372           35.13605           15.32396           50.95417           6.011372           35.13605
        1.760000           7.417980           38.01347           21.19901           57.29422           7.417980           38.01347
        1.784000           9.372090           41.50222           30.81845           64.88987           9.372090           41.50222
        1.808000           12.18734           45.78477           47.38876           72.71147           12.18734           45.78477
        1.832000           16.42280           51.08347           76.05587           75.28056           16.42280           51.08347
        1.856000           23.12688           57.59176           116.3103           54.97359           23.12688           57.59176
        1.880000           34.33797           65.12896           134.0952          -2.183249           34.33797           65.12896
        1.904000           53.88035           71.69942           102.7887          -48.93535           53.88035           71.69942
        1.928000           86.43648           68.56136           64.90924          -58.79379           86.43648           68.56136
        1.952000           122.4958           34.92864           40.85651          -53.29311           122.4958           34.92864
        1.976000           119.7732          -23.04394           27.08972          -45.26317           119.7732          -23.04394
        2.000000           82.47779          -52.64506           18.98028          -38.03823           82.47779          -52.64506
        2.024000           51.33747          -53.97555           13.93855          -32.10034           51.33747          -53.97555
        2.048000           32.90501          -47.06902           10.63576          -27.29601           32.90501          -47.06902
