#                                                           
#  __  __   ________   ___ __ __    _______   ______        
# /_/\/_/\ /_______/\ /__//_//_/\ /_______/\ /_____/\       
# \ \ \ \ \\::: _  \ \\::\| \| \ \\::: _  \ \\:::_ \ \      
#  \:\_\ \ \\::(_)  \ \\:.      \ \\::(_)  \/_\:\ \ \ \     
#   \::::_\/ \:: __  \ \\:.\-/\  \ \\::  _  \ \\:\ \ \ \    
#     \::\ \  \:.\ \  \ \\. \  \  \ \\::(_)  \ \\:\_\ \ \   
#      \__\/   \__\/\__\/ \__\/ \__\/ \_______\/ \_____\/   
#                                                           
#                                                           
#        Version 4.1.2 Revision 14038 Hash bd0d05e          
#                    MPI+OpenMP Build                       
#                http://www.yambo-code.org                  
#
# Absorption @ Q(1) [q->0 direction] :0.1000E-4  0.000     0.000   
#
#
# - Energies      are GoWo Plasmon Pole appox.
# - Wavefunctions are Teter 93(XC)
#
# - The Green`s function is Retarded -
# - Using the Length Gauge -
# - [r,Vnl] *is* included -
#
#   BSK|Identifier              :917
#      |Dimension               :96
#      |Bands                   :1 - 7
#      |Exchange           [res]: yes
#      |Correlation        [res]: yes
#      |Kernel`s coupling       : no
#      |Exchange           [cpl]: no
#      |Correlation        [cpl]: no
#      |W interaction is bare   : no
#      |ALDA kernel in R-space  : no
#      |RL vectors    [exchange]:363
#      |RL vectors [correlation]:1
#      |E/h energy range    [ev]:-1.000000 - -1.000000
#      |Coupling range     [o/o]: 100.0000 -  100.0000
#    W |Interaction is diagonal : no
#      |Matrix size             :1
#      |Bands                   :1 - 7
#      |e/h energy range    [ev]:-1.000000 - -1.000000
#      |Poles              [o/o]: 100.0000
#      |RL vectors in the sum   :363
#      |[r,Vnl] included        : yes
#      |Field direction         :0.1000E-4  0.000000  0.000000
#      |Coulomb Cutoff          :none
#      |xc-Kernel               :none
#   RIM|RL components      [col]:0
#      |Random points      [col]:0
#
#  E/ev[1]    EPS-Im[2]  EPS-Re[3]  EPSo-Im[4] EPSo-Re[5]
#
   0.00000    0.00000   36.20539    0.00000   35.53209
 0.1001E-1  0.3708E-2   36.21     0.3442E-2   35.53   
 0.2002E-1  0.7416E-2   36.21     0.6885E-2   35.53   
 0.3003E-1  0.1112E-1   36.21     0.1033E-1   35.53   
 0.4004E-1  0.1483E-1   36.21     0.1377E-1   35.53   
 0.5005E-1  0.1854E-1   36.21     0.1722E-1   35.54   
 0.6006E-1  0.2226E-1   36.21     0.2066E-1   35.54   
 0.7007E-1  0.2597E-1   36.21     0.2411E-1   35.54   
 0.8008E-1  0.2968E-1   36.22     0.2756E-1   35.54   
 0.9009E-1  0.3340E-1   36.22     0.3101E-1   35.55   
 0.1001     0.3712E-1   36.22     0.3446E-1   35.55   
   0.11011    0.04084   36.22779    0.03791   35.55289
   0.12012    0.04457   36.23205    0.04137   35.55686
   0.13013    0.04829   36.23668    0.04483   35.56117
   0.14014    0.05202   36.24170    0.04829   35.56582
   0.15015    0.05576   36.24710    0.05176   35.57082
   0.16016    0.05950   36.25286    0.05523   35.57616
   0.17017    0.06324   36.25896    0.05870   35.58185
   0.18018    0.06698   36.26546    0.06217   35.58789
   0.19019    0.07073   36.27234    0.06565   35.59426
   0.20020    0.07449   36.27958    0.06914   35.60100
   0.21021    0.07825   36.28723    0.07263   35.60808
   0.22022    0.08202   36.29523    0.07612   35.61551
   0.23023    0.08579   36.30360    0.07962   35.62328
   0.24024    0.08956   36.31236    0.08312   35.63141
   0.25025    0.09335   36.32149    0.08663   35.63989
   0.26026    0.09714   36.33102    0.09014   35.64872
   0.27027    0.10093   36.34093    0.09366   35.65790
   0.28028    0.10473   36.35120    0.09718   35.66742
   0.29029    0.10854   36.36184    0.10072   35.67731
   0.30030    0.11236   36.37286    0.10425   35.68755
   0.31031    0.11619   36.38430    0.10780   35.69814
   0.32032    0.12002   36.39609    0.11135   35.70910
   0.33033    0.12386   36.40824    0.11491   35.72039
   0.34034    0.12771   36.42081    0.11848   35.73205
   0.35035    0.13157   36.43375    0.12205   35.74406
   0.36036    0.13543   36.44709    0.12563   35.75643
   0.37037    0.13931   36.46083    0.12922   35.76915
   0.38038    0.14319   36.47492    0.13282   35.78224
   0.39039    0.14709   36.48943    0.13643   35.79568
   0.40040    0.15099   36.50430    0.14004   35.80949
   0.41041    0.15491   36.51958    0.14367   35.82367
   0.42042    0.15884   36.53526    0.14730   35.83819
   0.43043    0.16277   36.55131    0.15094   35.85309
   0.44044    0.16672   36.56776    0.15460   35.86835
   0.45045    0.17068   36.58459    0.15826   35.88397
   0.46046    0.17465   36.60183    0.16193   35.89997
   0.47047    0.17864   36.61950    0.16562   35.91631
   0.48048    0.18264   36.63754    0.16931   35.93304
   0.49049    0.18664   36.65599    0.17302   35.95014
   0.50050    0.19067   36.67480    0.17674   35.96761
   0.51051    0.19470   36.69405    0.18047   35.98545
   0.52052    0.19875   36.71371    0.18421   36.00365
   0.53053    0.20281   36.73375    0.18796   36.02223
   0.54054    0.20689   36.75422    0.19173   36.04121
   0.55055    0.21098   36.77507    0.19550   36.06054
   0.56056    0.21509   36.79638    0.19930   36.08026
   0.57057    0.21921   36.81806    0.20310   36.10035
   0.58058    0.22335   36.84015    0.20692   36.12082
   0.59059    0.22750   36.86264    0.21075   36.14169
   0.60060    0.23167   36.88557    0.21460   36.16293
   0.61061    0.23586   36.90892    0.21846   36.18456
   0.62062    0.24006   36.93268    0.22233   36.20657
   0.63063    0.24428   36.95687    0.22622   36.22897
   0.64064    0.24852   36.98148    0.23013   36.25176
   0.65065    0.25277   37.00649    0.23405   36.27494
   0.66066    0.25704   37.03193    0.23799   36.29851
   0.67067    0.26134   37.05783    0.24194   36.32248
   0.68068    0.26565   37.08414    0.24591   36.34684
   0.69069    0.26998   37.11089    0.24990   36.37160
   0.70070    0.27433   37.13807    0.25390   36.39675
   0.71071    0.27869   37.16568    0.25792   36.42231
   0.72072    0.28308   37.19372    0.26196   36.44828
   0.73073    0.28749   37.22221    0.26601   36.47463
   0.74074    0.29193   37.25115    0.27009   36.50141
   0.75075    0.29638   37.28052    0.27418   36.52857
   0.76076    0.30085   37.31031    0.27830   36.55616
   0.77077    0.30535   37.34058    0.28243   36.58416
   0.78078    0.30987   37.37132    0.28658   36.61258
   0.79079    0.31441   37.40247    0.29075   36.64141
   0.80080    0.31898   37.43410    0.29494   36.67065
   0.81081    0.32357   37.46617    0.29916   36.70033
   0.82082    0.32818   37.49870    0.30339   36.73040
   0.83083    0.33282   37.53171    0.30765   36.76091
   0.84084    0.33749   37.56519    0.31192   36.79185
   0.85085    0.34218   37.59912    0.31622   36.82322
   0.86086    0.34689   37.63350    0.32054   36.85500
   0.87087    0.35163   37.66837    0.32489   36.88722
   0.88088    0.35640   37.70374    0.32926   36.91990
   0.89089    0.36120   37.73954    0.33365   36.95299
   0.90090    0.36602   37.77586    0.33807   36.98654
   0.91091    0.37087   37.81263    0.34251   37.02052
   0.92092    0.37576   37.84991    0.34697   37.05494
   0.93093    0.38067   37.88768    0.35146   37.08981
   0.94094    0.38561   37.92592    0.35598   37.12513
   0.95095    0.39057   37.96468    0.36052   37.16091
   0.96096    0.39557   38.00393    0.36509   37.19712
   0.97097    0.40061   38.04366    0.36969   37.23381
   0.98098    0.40567   38.08392    0.37431   37.27096
   0.99099    0.41076   38.12466    0.37896   37.30856
   1.00100    0.41589   38.16592    0.38364   37.34663
   1.01101    0.42105   38.20772    0.38835   37.38518
   1.02102    0.42625   38.25002    0.39309   37.42418
   1.03103    0.43148   38.29281    0.39785   37.46368
   1.04104    0.43674   38.33616    0.40265   37.50365
   1.05105    0.44204   38.38003    0.40748   37.54409
   1.06106    0.44737   38.42440    0.41234   37.58500
   1.07107    0.45275   38.46935    0.41723   37.62642
   1.08108    0.45815   38.51483    0.42215   37.66833
   1.09109    0.46360   38.56083    0.42710   37.71073
   1.10110    0.46908   38.60739    0.43209   37.75362
   1.11111    0.47461   38.65447    0.43711   37.79702
   1.12112    0.48017   38.70214    0.44217   37.84091
   1.13113    0.48577   38.75033    0.44726   37.88529
   1.14114    0.49142   38.79911    0.45238   37.93021
   1.15115    0.49710   38.84845    0.45754   37.97562
   1.16116    0.50283   38.89835    0.46274   38.02157
   1.17117    0.50860   38.94883    0.46797   38.06803
   1.18118    0.51441   38.99987    0.47324   38.11500
   1.19119    0.52027   39.05151    0.47855   38.16253
   1.20120    0.52617   39.10374    0.48390   38.21057
   1.21121    0.53212   39.15655    0.48928   38.25914
   1.22122    0.53811   39.20998    0.49471   38.30824
   1.23123    0.54415   39.26398    0.50017   38.35791
   1.24124    0.55024   39.31861    0.50568   38.40810
   1.25125    0.55638   39.37379    0.51123   38.45887
   1.26126    0.56256   39.42965    0.51682   38.51019
   1.27127    0.56880   39.48610    0.52246   38.56206
   1.28128    0.57509   39.54317    0.52813   38.61450
   1.29129    0.58142   39.60088    0.53385   38.66749
   1.30130    0.58781   39.65926    0.53962   38.72107
   1.31131    0.59426   39.71823    0.54543   38.77523
   1.32132    0.60076   39.77785    0.55129   38.82996
   1.33133    0.60731   39.83815    0.55719   38.88528
   1.34134    0.61392   39.89906    0.56315   38.94121
   1.35135    0.62058   39.96067    0.56915   38.99771
   1.36136    0.62730   40.02293    0.57520   39.05482
   1.37137    0.63409   40.08588    0.58130   39.11253
   1.38138    0.64093   40.14947    0.58745   39.17086
   1.39139    0.64783   40.21378    0.59365   39.22979
   1.40140    0.65479   40.27877    0.59991   39.28936
   1.41141    0.66181   40.34445    0.60622   39.34954
   1.42142    0.66890   40.41082    0.61258   39.41036
   1.43143    0.67605   40.47792    0.61899   39.47181
   1.44144    0.68327   40.54576    0.62547   39.53391
   1.45145    0.69056   40.61424    0.63199   39.59666
   1.46146    0.69791   40.68353    0.63858   39.66006
   1.47147    0.70533   40.75354    0.64523   39.72412
   1.48148    0.71282   40.82430    0.65193   39.78885
   1.49149    0.72038   40.89577    0.65869   39.85423
   1.50150    0.72801   40.96801    0.66552   39.92030
   1.51151    0.73572   41.04103    0.67241   39.98706
   1.52152    0.74350   41.11483    0.67936   40.05449
   1.53153    0.75135   41.18939    0.68637   40.12264
   1.54154    0.75929   41.26476    0.69345   40.19147
   1.55155    0.76730   41.34088    0.70060   40.26103
   1.56156    0.77539   41.41783    0.70781   40.33129
   1.57157    0.78356   41.49558    0.71509   40.40229
   1.58158    0.79181   41.57417    0.72244   40.47401
   1.59159    0.80015   41.65354    0.72986   40.54644
   1.60160    0.80857   41.73375    0.73736   40.61964
   1.61161    0.81708   41.81483    0.74492   40.69357
   1.62162    0.82567   41.89676    0.75256   40.76828
   1.63163    0.83436   41.97955    0.76028   40.84374
   1.64164    0.84313   42.06321    0.76807   40.91998
   1.65165    0.85200   42.14773    0.77594   40.99699
   1.66166    0.86096   42.23314    0.78388   41.07479
   1.67167    0.87001   42.31947    0.79191   41.15340
   1.68168    0.87917   42.40669    0.80002   41.23282
   1.69169    0.88842   42.49482    0.80822   41.31301
   1.70170    0.89777   42.58386    0.81649   41.39404
   1.71171    0.90723   42.67386    0.82486   41.47589
   1.72172    0.91679   42.76482    0.83331   41.55860
   1.73173    0.92645   42.85671    0.84184   41.64214
   1.74174    0.93622   42.94957    0.85047   41.72653
   1.75175    0.94610   43.04340    0.85919   41.81178
   1.76176    0.95609   43.13824    0.86801   41.89793
   1.77177    0.96620   43.23406    0.87692   41.98493
   1.78178    0.97642   43.33091    0.88592   42.07285
   1.79179    0.98676   43.42876    0.89502   42.16166
   1.80180    0.99721   43.52768    0.90422   42.25138
   1.81181    1.00779   43.62761    0.91353   42.34200
   1.82182    1.01849   43.72861    0.92294   42.43357
   1.83183    1.02932   43.83069    0.93245   42.52609
   1.84184    1.04028   43.93385    0.94207   42.61954
   1.85185    1.05137   44.03807    0.95179   42.71396
   1.86186    1.06258   44.14344    0.96163   42.80936
   1.87187    1.07394   44.24989    0.97158   42.90572
   1.88188    1.08543   44.35754    0.98164   43.00310
   1.89189    1.09706   44.46629    0.99183   43.10147
   1.90190    1.10884   44.57621    1.00213   43.20087
   1.91191    1.12076   44.68729    1.01255   43.30131
   1.92192    1.13283   44.79961    1.02309   43.40279
   1.93193    1.14505   44.91309    1.03376   43.50529
   1.94194    1.15742   45.02781    1.04455   43.60890
   1.95195    1.16995   45.14377    1.05548   43.71355
   1.96196    1.18264   45.26097    1.06653   43.81931
   1.97197    1.19550   45.37946    1.07772   43.92619
   1.98198    1.20852   45.49924    1.08905   44.03417
   1.99199    1.22170   45.62027    1.10052   44.14328
   2.00200    1.23506   45.74265    1.11213   44.25355
   2.01201    1.24860   45.86636    1.12388   44.36498
   2.02202    1.26231   45.99143    1.13578   44.47757
   2.03203    1.27621   46.11787    1.14783   44.59136
   2.04204    1.29029   46.24567    1.16004   44.70635
   2.05205    1.30456   46.37492    1.17240   44.82257
   2.06206    1.31903   46.50559    1.18491   44.94001
   2.07207    1.33369   46.63768    1.19759   45.05870
   2.08208    1.34855   46.77126    1.21044   45.17868
   2.09209    1.36362   46.90630    1.22345   45.29992
   2.10210    1.37890   47.04285    1.23663   45.42248
   2.11211    1.39439   47.18092    1.24999   45.54634
   2.12212    1.41010   47.32058    1.26352   45.67155
   2.13213    1.42603   47.46175    1.27724   45.79809
   2.14214    1.44219   47.60455    1.29114   45.92602
   2.15215    1.45858   47.74893    1.30523   46.05532
   2.16216    1.47521   47.89497    1.31951   46.18604
   2.17217    1.49207   48.04266    1.33399   46.31817
   2.18218    1.50919   48.19206    1.34867   46.45178
   2.19219    1.52655   48.34315    1.36355   46.58683
   2.20220    1.54417   48.49596    1.37864   46.72338
   2.21221    1.56206   48.65057    1.39394   46.86142
   2.22222    1.58021   48.80690    1.40946   47.00101
   2.23223    1.59863   48.96508    1.42520   47.14211
   2.24224    1.61734   49.12511    1.44117   47.28483
   2.25225    1.63633   49.28698    1.45736   47.42913
   2.26226    1.65561   49.45076    1.47380   47.57504
   2.27227    1.67519   49.61646    1.49047   47.72258
   2.28228    1.69507   49.78410    1.50739   47.87180
   2.29229    1.71527   49.95373    1.52455   48.02269
   2.30230    1.73578   50.12539    1.54198   48.17529
   2.31231    1.75662   50.29907    1.55966   48.32964
   2.32232    1.77779   50.47487    1.57761   48.48577
   2.33233    1.79931   50.65271    1.59584   48.64369
   2.34234    1.82117   50.83276    1.61434   48.80340
   2.35235    1.84338   51.01495    1.63312   48.96499
   2.36236    1.86597   51.19936    1.65220   49.12843
   2.37237    1.88892   51.38602    1.67158   49.29377
   2.38238    1.91225   51.57498    1.69126   49.46105
   2.39239    1.93598   51.76625    1.71125   49.63029
   2.40240    1.96010   51.95990    1.73155   49.80154
   2.41241    1.98464   52.15594    1.75219   49.97479
   2.42242    2.00959   52.35443    1.77315   50.15011
   2.43243    2.03497   52.55541    1.79446   50.32751
   2.44244    2.06080   52.75893    1.81611   50.50705
   2.45245    2.08707   52.96500    1.83812   50.68873
   2.46246    2.11380   53.17368    1.86049   50.87262
   2.47247    2.14100   53.38503    1.88323   51.05873
   2.48248    2.16869   53.59909    1.90636   51.24710
   2.49249    2.19688   53.81592    1.92987   51.43776
   2.50250    2.22557   54.03552    1.95379   51.63078
   2.51251    2.25478   54.25799    1.97812   51.82619
   2.52252    2.28453   54.48338    2.00286   52.02401
   2.53253    2.31483   54.71169    2.02804   52.22431
   2.54254    2.34569   54.94304    2.05365   52.42709
   2.55255    2.37713   55.17747    2.07972   52.63245
   2.56256    2.40915   55.41499    2.10624   52.84039
   2.57257    2.44179   55.65573    2.13324   53.05095
   2.58258    2.47505   55.89968    2.16073   53.26423
   2.59259    2.50895   56.14695    2.18871   53.48022
   2.60260    2.54351   56.39759    2.21721   53.69901
   2.61261    2.57874   56.65166    2.24622   53.92060
   2.62262    2.61467   56.90924    2.27578   54.14513
   2.63263    2.65131   57.17036    2.30588   54.37259
   2.64264    2.68868   57.43514    2.33655   54.60300
   2.65265    2.72680   57.70361    2.36780   54.83647
   2.66266    2.76570   57.97588    2.39965   55.07304
   2.67267    2.80539   58.25203    2.43211   55.31281
   2.68268    2.84591   58.53205    2.46520   55.55578
   2.69269    2.88726   58.81614    2.49893   55.80205
   2.70270    2.92948   59.10434    2.53332   56.05165
   2.71271    2.97259   59.39671    2.56839   56.30467
   2.72272    3.01661   59.69329    2.60417   56.56117
   2.73273    3.06158   59.99429    2.64066   56.82123
   2.74274    3.10753   60.29974    2.67789   57.08490
   2.75275    3.15447   60.60973    2.71588   57.35228
   2.76276    3.20245   60.92437    2.75466   57.62341
   2.77277    3.25148   61.24373    2.79424   57.89838
   2.78278    3.30162   61.56800    2.83464   58.17728
   2.79279    3.35288   61.89722    2.87590   58.46019
   2.80280    3.40531   62.23147    2.91803   58.74719
   2.81281    3.45894   62.57090    2.96107   59.03834
   2.82282    3.51380   62.91568    3.00504   59.33377
   2.83283    3.56995   63.26583    3.04996   59.63356
   2.84284    3.62741   63.62152    3.09588   59.93779
   2.85285    3.68624   63.98292    3.14280   60.24658
   2.86286    3.74648   64.35012    3.19078   60.55999
   2.87287    3.80817   64.72327    3.23984   60.87814
   2.88288    3.87136   65.10249    3.29002   61.20114
   2.89289    3.93611   65.48790    3.34134   61.52913
   2.90290    4.00246   65.87973    3.39385   61.86214
   2.91291    4.07047   66.27809    3.44759   62.20038
   2.92292    4.14020   66.68313    3.50259   62.54392
   2.93293    4.21171   67.09505    3.55889   62.89286
   2.94294    4.28506   67.51400    3.61655   63.24735
   2.95295    4.36031   67.94019    3.67560   63.60756
   2.96296    4.43754   68.37373    3.73609   63.97358
   2.97297    4.51681   68.81487    3.79807   64.34555
   2.98298    4.59821   69.26376    3.86160   64.72363
   2.99299    4.68180   69.72065    3.92671   65.10798
   3.00300    4.76767   70.18576    3.99348   65.49872
   3.01301    4.85592   70.65925    4.06196   65.89603
   3.02302    4.94661   71.14147    4.13220   66.30006
   3.03303    5.03986   71.63246    4.20428   66.71104
   3.04304    5.13575   72.13263    4.27825   67.12906
   3.05305    5.23440   72.64220    4.35419   67.55434
   3.06306    5.33591   73.16132    4.43218   67.98708
   3.07307    5.44040   73.69044    4.51228   68.42747
   3.08308    5.54798   74.22968    4.59457   68.87570
   3.09309    5.65879   74.77945    4.67915   69.33201
   3.10310    5.77296   75.33998    4.76609   69.79658
   3.11311    5.89062   75.91167    4.85550   70.26965
   3.12312    6.01193   76.49480    4.94746   70.75146
   3.13313    6.13703   77.08971    5.04207   71.24229
   3.14314    6.26610   77.69672    5.13946   71.74233
   3.15315    6.39931   78.31631    5.23972   72.25185
   3.16316    6.53684   78.94873    5.34297   72.77121
   3.17317    6.67888   79.59454    5.44934   73.30053
   3.18318    6.82563   80.25413    5.55896   73.84030
   3.19319    6.97732   80.92777    5.67197   74.39066
   3.20320    7.13417   81.61613    5.78851   74.95205
   3.21321    7.29642   82.31953    5.90874   75.52470
   3.22322    7.46434   83.03858    6.03281   76.10905
   3.23323    7.63819   83.77380    6.16090   76.70536
