#                                                                     
#  **    **    **     ****     ****  ******     *******               
# //**  **    ****   /**/**   **/** /*////**   **/////**              
#  //****    **//**  /**//** ** /** /*   /**  **     //**             
#   //**    **  //** /** //***  /** /******  /**      /**             
#    /**   **********/**  //*   /** /*//// **/**      /**             
#    /**  /**//////**/**   /    /** /*    /**//**     **              
#    /**  /**     /**/**        /** /*******  //*******               
#    //   //      // //         //  ///////    ///////                
#                                                                     
#       Version 4.5.0 Revision 17636 Hash 18ab817f6                   
#                   Branch is devel-sc                                
#                   MPI+HDF5_LIB Build                                
#                http://www.yambo-code.org                            
#
# Absorption @ Q(1) [q->0 direction] :0.1000E-4  0.000     0.000   
#
#
# - Energies      are  E < 03_gw/ndb.QP + E Fit
# - Wavefunctions are Teter 93(XC)
#
# - The Green`s function is Retarded -
# - Using the Length Gauge -
# - [r,Vnl] *is* included -
#
#   BSK|Identifier              :5917
#      |Dimension               :96
#      |Bands                   :1 - 7
#      |Exchange           [res]: yes
#      |Correlation        [res]: yes
#      |Kernel`s coupling       : no
#      |Exchange           [cpl]: no
#      |Correlation        [cpl]: no
#      |W interaction is bare   : no
#      |ALDA kernel in R-space  : no
#      |RL vectors    [exchange]:363
#      |RL vectors [correlation]:1
#      |E/h energy range    [ev]:-1.000000 - -1.000000
#      |Coupling range     [o/o]: 100.0000 -  100.0000
#    W |Interaction is diagonal : no
#      |Matrix size             :1
#      |Bands                   :1 - 7
#      |e/h energy range    [ev]:-1.000000 - -1.000000
#      |Poles              [o/o]: 100.0000
#      |RL vectors in the sum   :363
#      |[r,Vnl] included        : yes
#      |Field direction         :0.1000E-4  0.000000  0.000000
#      |Coulomb Cutoff          :none
#      |xc-Kernel               :none
#   RIM|RL components      [col]:0
#      |Random points      [col]:0
#   SOC|Perturbative SOC        : no
#      |Bands in the MAP db     :0
#
#    E/ev[1]      EPS-Im[2]    EPS-Re[3]    EPSo-Im[4]   EPSo-Re[5]
#
     0.00000      0.00000     36.17683      0.00000     35.50536
   0.1001E-1    0.3699E-2     36.18       0.3434E-2     35.51   
   0.2002E-1    0.7397E-2     36.18       0.6868E-2     35.51   
   0.3003E-1    0.1110E-1     36.18       0.1030E-1     35.51   
   0.4004E-1    0.1480E-1     36.18       0.1374E-1     35.51   
   0.5005E-1    0.1850E-1     36.18       0.1717E-1     35.51   
   0.6006E-1    0.2220E-1     36.18       0.2061E-1     35.51   
   0.7007E-1    0.2590E-1     36.19       0.2405E-1     35.51   
   0.8008E-1    0.2961E-1     36.19       0.2749E-1     35.52   
   0.9009E-1    0.3332E-1     36.19       0.3093E-1     35.52   
   0.1001       0.3703E-1     36.20       0.3438E-1     35.52   
     0.11011      0.04074     36.19921      0.03782     35.52612
     0.12012      0.04445     36.20346      0.04127     35.53008
     0.13013      0.04817     36.20807      0.04472     35.53437
     0.14014      0.05189     36.21306      0.04817     35.53902
     0.15015      0.05562     36.21844      0.05163     35.54400
     0.16016      0.05934     36.22417      0.05509     35.54933
     0.17017      0.06308     36.23027      0.05856     35.55502
     0.18018      0.06681     36.23677      0.06202     35.56104
     0.19019      0.07055     36.24363      0.06549     35.56739
     0.20020      0.07430     36.25086      0.06897     35.57412
     0.21021      0.07805     36.25846      0.07245     35.58118
     0.22022      0.08181     36.26645      0.07593     35.58857
     0.23023      0.08557     36.27480      0.07942     35.59635
     0.24024      0.08933     36.28355      0.08292     35.60446
     0.25025      0.09311     36.29266      0.08642     35.61292
     0.26026      0.09689     36.30215      0.08992     35.62172
     0.27027      0.10067     36.31201      0.09343     35.63087
     0.28028      0.10446     36.32226      0.09695     35.64038
     0.29029      0.10826     36.33289      0.10047     35.65024
     0.30030      0.11207     36.34388      0.10400     35.66045
     0.31031      0.11589     36.35527      0.10754     35.67101
     0.32032      0.11971     36.36705      0.11108     35.68193
     0.33033      0.12354     36.37920      0.11463     35.69321
     0.34034      0.12738     36.39172      0.11819     35.70483
     0.35035      0.13123     36.40464      0.12175     35.71682
     0.36036      0.13508     36.41794      0.12532     35.72916
     0.37037      0.13895     36.43161      0.12890     35.74186
     0.38038      0.14282     36.44569      0.13249     35.75491
     0.39039      0.14671     36.46015      0.13609     35.76832
     0.40040      0.15060     36.47500      0.13970     35.78209
     0.41041      0.15451     36.49023      0.14331     35.79623
     0.42042      0.15842     36.50584      0.14694     35.81072
     0.43043      0.16235     36.52187      0.15057     35.82559
     0.44044      0.16629     36.53829      0.15422     35.84081
     0.45045      0.17024     36.55508      0.15787     35.85640
     0.46046      0.17420     36.57228      0.16153     35.87235
     0.47047      0.17817     36.58988      0.16521     35.88866
     0.48048      0.18216     36.60786      0.16889     35.90533
     0.49049      0.18616     36.62624      0.17259     35.92241
     0.50050      0.19017     36.64504      0.17630     35.93982
     0.51051      0.19419     36.66424      0.18002     35.95761
     0.52052      0.19823     36.68383      0.18375     35.97578
     0.53053      0.20228     36.70385      0.18750     35.99433
     0.54054      0.20635     36.72424      0.19125     36.01324
     0.55055      0.21043     36.74506      0.19502     36.03253
     0.56056      0.21453     36.76628      0.19880     36.05219
     0.57057      0.21864     36.78790      0.20260     36.07223
     0.58058      0.22276     36.80995      0.20640     36.09267
     0.59059      0.22690     36.83239      0.21023     36.11348
     0.60060      0.23106     36.85526      0.21406     36.13465
     0.61061      0.23524     36.87855      0.21791     36.15622
     0.62062      0.23943     36.90223      0.22178     36.17819
     0.63063      0.24363     36.92637      0.22566     36.20054
     0.64064      0.24786     36.95089      0.22955     36.22327
     0.65065      0.25210     36.97585      0.23346     36.24639
     0.66066      0.25636     37.00125      0.23739     36.26990
     0.67067      0.26064     37.02705      0.24133     36.29380
     0.68068      0.26494     37.05331      0.24529     36.31811
     0.69069      0.26926     37.07998      0.24927     36.34280
     0.70070      0.27360     37.10707      0.25326     36.36790
     0.71071      0.27795     37.13461      0.25727     36.39340
     0.72072      0.28233     37.16257      0.26130     36.41929
     0.73073      0.28673     37.19099      0.26534     36.44559
     0.74074      0.29115     37.21983      0.26941     36.47228
     0.75075      0.29559     37.24915      0.27349     36.49940
     0.76076      0.30005     37.27890      0.27759     36.52691
     0.77077      0.30453     37.30907      0.28171     36.55485
     0.78078      0.30904     37.33970      0.28585     36.58319
     0.79079      0.31357     37.37082      0.29001     36.61194
     0.80080      0.31812     37.40234      0.29419     36.64111
     0.81081      0.32270     37.43433      0.29840     36.67070
     0.82082      0.32730     37.46677      0.30262     36.70071
     0.83083      0.33192     37.49969      0.30686     36.73114
     0.84084      0.33657     37.53307      0.31113     36.76200
     0.85085      0.34125     37.56690      0.31541     36.79328
     0.86086      0.34595     37.60122      0.31972     36.82500
     0.87087      0.35068     37.63599      0.32406     36.85714
     0.88088      0.35543     37.67123      0.32841     36.88971
     0.89089      0.36022     37.70698      0.33279     36.92273
     0.90090      0.36502     37.74317      0.33720     36.95619
     0.91091      0.36986     37.77987      0.34162     36.99009
     0.92092      0.37473     37.81704      0.34608     37.02441
     0.93093      0.37962     37.85469      0.35055     37.05920
     0.94094      0.38455     37.89284      0.35506     37.09443
     0.95095      0.38950     37.93149      0.35959     37.13012
     0.96096      0.39449     37.97062      0.36414     37.16623
     0.97097      0.39950     38.01024      0.36873     37.20282
     0.98098      0.40455     38.05039      0.37334     37.23988
     0.99099      0.40963     38.09103      0.37797     37.27739
     1.00100      0.41474     38.13219      0.38264     37.31535
     1.01101      0.41989     38.17386      0.38733     37.35379
     1.02102      0.42506     38.21602      0.39206     37.39271
     1.03103      0.43028     38.25871      0.39681     37.43209
     1.04104      0.43552     38.30192      0.40159     37.47196
     1.05105      0.44081     38.34568      0.40640     37.51229
     1.06106      0.44612     38.38994      0.41125     37.55310
     1.07107      0.45148     38.43474      0.41612     37.59442
     1.08108      0.45687     38.48009      0.42103     37.63620
     1.09109      0.46230     38.52598      0.42597     37.67848
     1.10110      0.46776     38.57238      0.43094     37.72127
     1.11111      0.47327     38.61934      0.43595     37.76454
     1.12112      0.47881     38.66688      0.44099     37.80833
     1.13113      0.48440     38.71495      0.44606     37.85260
     1.14114      0.49002     38.76361      0.45117     37.89740
     1.15115      0.49569     38.81279      0.45632     37.94269
     1.16116      0.50140     38.86253      0.46150     37.98851
     1.17117      0.50715     38.91288      0.46671     38.03484
     1.18118      0.51294     38.96378      0.47197     38.08170
     1.19119      0.51878     39.01527      0.47726     38.12907
     1.20120      0.52466     39.06734      0.48259     38.17700
     1.21121      0.53059     39.12000      0.48796     38.22544
     1.22122      0.53656     39.17327      0.49337     38.27440
     1.23123      0.54258     39.22712      0.49882     38.32394
     1.24124      0.54865     39.28157      0.50431     38.37401
     1.25125      0.55477     39.33664      0.50984     38.42463
     1.26126      0.56093     39.39231      0.51541     38.47580
     1.27127      0.56714     39.44860      0.52102     38.52753
     1.28128      0.57341     39.50550      0.52668     38.57983
     1.29129      0.57973     39.56306      0.53239     38.63268
     1.30130      0.58609     39.62122      0.53813     38.68612
     1.31131      0.59251     39.68003      0.54393     38.74011
     1.32132      0.59899     39.73949      0.54976     38.79470
     1.33133      0.60552     39.79958      0.55565     38.84985
     1.34134      0.61210     39.86037      0.56158     38.90563
     1.35135      0.61874     39.92177      0.56756     38.96198
     1.36136      0.62544     39.98384      0.57359     39.01893
     1.37137      0.63220     40.04660      0.57967     39.07648
     1.38138      0.63902     40.11001      0.58580     39.13464
     1.39139      0.64589     40.17414      0.59199     39.19342
     1.40140      0.65283     40.23895      0.59822     39.25282
     1.41141      0.65983     40.30442      0.60451     39.31283
     1.42142      0.66689     40.37059      0.61085     39.37348
     1.43143      0.67402     40.43748      0.61724     39.43476
     1.44144      0.68121     40.50510      0.62369     39.49669
     1.45145      0.68846     40.57343      0.63020     39.55924
     1.46146      0.69579     40.64250      0.63676     39.62248
     1.47147      0.70318     40.71227      0.64338     39.68635
     1.48148      0.71064     40.78283      0.65006     39.75089
     1.49149      0.71817     40.85410      0.65680     39.81609
     1.50150      0.72578     40.92611      0.66360     39.88197
     1.51151      0.73345     40.99892      0.67047     39.94853
     1.52152      0.74120     41.07245      0.67739     40.01578
     1.53153      0.74903     41.14680      0.68438     40.08372
     1.54154      0.75693     41.22191      0.69143     40.15236
     1.55155      0.76491     41.29783      0.69855     40.22172
     1.56156      0.77297     41.37452      0.70574     40.29177
     1.57157      0.78111     41.45202      0.71300     40.36255
     1.58158      0.78933     41.53035      0.72032     40.43406
     1.59159      0.79763     41.60952      0.72771     40.50630
     1.60160      0.80602     41.68948      0.73518     40.57928
     1.61161      0.81449     41.77030      0.74272     40.65299
     1.62162      0.82306     41.85195      0.75033     40.72749
     1.63163      0.83171     41.93447      0.75801     40.80272
     1.64164      0.84044     42.01786      0.76578     40.87873
     1.65165      0.84928     42.10215      0.77361     40.95551
     1.66166      0.85820     42.18729      0.78153     41.03308
     1.67167      0.86722     42.27333      0.78953     41.11145
     1.68168      0.87634     42.36028      0.79761     41.19061
     1.69169      0.88555     42.44809      0.80577     41.27058
     1.70170      0.89486     42.53689      0.81402     41.35135
     1.71171      0.90428     42.62658      0.82235     41.43296
     1.72172      0.91380     42.71724      0.83076     41.51542
     1.73173      0.92342     42.80883      0.83927     41.59870
     1.74174      0.93315     42.90141      0.84786     41.68284
     1.75175      0.94299     42.99492      0.85655     41.76784
     1.76176      0.95294     43.08945      0.86533     41.85371
     1.77177      0.96300     43.18494      0.87420     41.94045
     1.78178      0.97317     43.28147      0.88317     42.02810
     1.79179      0.98347     43.37901      0.89223     42.11661
     1.80180      0.99388     43.47758      0.90140     42.20607
     1.81181      1.00441     43.57718      0.91066     42.29640
     1.82182      1.01507     43.67786      0.92003     42.38768
     1.83183      1.02585     43.77958      0.92951     42.47991
     1.84184      1.03676     43.88238      0.93909     42.57307
     1.85185      1.04779     43.98625      0.94877     42.66719
     1.86186      1.05896     44.09126      0.95857     42.76228
     1.87187      1.07027     44.19737      0.96848     42.85837
     1.88188      1.08171     44.30460      0.97850     42.95543
     1.89189      1.09329     44.41300      0.98864     43.05348
     1.90190      1.10501     44.52254      0.99889     43.15256
     1.91191      1.11688     44.63328      1.00927     43.25266
     1.92192      1.12889     44.74518      1.01977     43.35382
     1.93193      1.14105     44.85828      1.03039     43.45600
     1.94194      1.15337     44.97259      1.04114     43.55925
     1.95195      1.16584     45.08813      1.05202     43.66359
     1.96196      1.17847     45.20493      1.06302     43.76900
     1.97197      1.19126     45.32299      1.07417     43.87550
     1.98198      1.20422     45.44233      1.08544     43.98314
     1.99199      1.21735     45.56299      1.09686     44.09189
     2.00200      1.23064     45.68493      1.10842     44.20181
     2.01201      1.24411     45.80820      1.12012     44.31284
     2.02202      1.25776     45.93283      1.13197     44.42507
     2.03203      1.27159     46.05880      1.14396     44.53847
     2.04204      1.28560     46.18616      1.15611     44.65307
     2.05205      1.29980     46.31492      1.16841     44.76891
     2.06206      1.31420     46.44511      1.18087     44.88595
     2.07207      1.32879     46.57673      1.19349     45.00425
     2.08208      1.34358     46.70980      1.20628     45.12379
     2.09209      1.35857     46.84435      1.21923     45.24464
     2.10210      1.37377     46.98041      1.23235     45.36676
     2.11211      1.38918     47.11798      1.24565     45.49020
     2.12212      1.40481     47.25708      1.25912     45.61496
     2.13213      1.42066     47.39776      1.27277     45.74108
     2.14214      1.43674     47.54001      1.28660     45.86856
     2.15215      1.45304     47.68384      1.30063     45.99742
     2.16216      1.46958     47.82933      1.31484     46.12766
     2.17217      1.48636     47.97647      1.32925     46.25935
     2.18218      1.50339     48.12527      1.34385     46.39247
     2.19219      1.52066     48.27579      1.35866     46.52704
     2.20220      1.53819     48.42802      1.37368     46.66310
     2.21221      1.55598     48.58199      1.38891     46.80063
     2.22222      1.57403     48.73775      1.40435     46.93972
     2.23223      1.59236     48.89531      1.42001     47.08033
     2.24224      1.61096     49.05472      1.43590     47.22250
     2.25225      1.62985     49.21595      1.45201     47.36628
     2.26226      1.64902     49.37908      1.46836     47.51167
     2.27227      1.66850     49.54411      1.48495     47.65866
     2.28228      1.68827     49.71111      1.50178     47.80732
     2.29229      1.70835     49.88005      1.51886     47.95765
     2.30230      1.72875     50.05099      1.53619     48.10971
     2.31231      1.74948     50.22400      1.55378     48.26348
     2.32232      1.77053     50.39907      1.57164     48.41902
     2.33233      1.79192     50.57621      1.58977     48.57633
     2.34234      1.81366     50.75550      1.60817     48.73546
     2.35235      1.83574     50.93695      1.62686     48.89640
     2.36236      1.85820     51.12061      1.64584     49.05923
     2.37237      1.88102     51.30650      1.66511     49.22393
     2.38238      1.90422     51.49467      1.68468     49.39058
     2.39239      1.92780     51.68513      1.70456     49.55916
     2.40240      1.95178     51.87795      1.72476     49.72973
     2.41241      1.97617     52.07322      1.74528     49.90231
     2.42242      2.00098     52.27085      1.76612     50.07693
     2.43243      2.02621     52.47097      1.78731     50.25363
     2.44244      2.05187     52.67356      1.80884     50.43245
     2.45245      2.07798     52.87876      1.83073     50.61344
     2.46246      2.10455     53.08656      1.85297     50.79657
     2.47247      2.13159     53.29700      1.87559     50.98194
     2.48248      2.15911     53.51011      1.89858     51.16954
     2.49249      2.18712     53.72598      1.92196     51.35944
     2.50250      2.21563     53.94461      1.94574     51.55167
     2.51251      2.24466     54.16607      1.96992     51.74627
     2.52252      2.27422     54.39046      1.99453     51.94328
     2.53253      2.30433     54.61776      2.01955     52.14274
     2.54254      2.33499     54.84808      2.04501     52.34468
     2.55255      2.36622     55.08141      2.07092     52.54917
     2.56256      2.39804     55.31786      2.09729     52.75624
     2.57257      2.43047     55.55750      2.12413     52.96591
     2.58258      2.46351     55.80033      2.15145     53.17828
     2.59259      2.49718     56.04644      2.17926     53.39336
     2.60260      2.53151     56.29592      2.20758     53.61119
     2.61261      2.56651     56.54878      2.23642     53.83187
     2.62262      2.60220     56.80515      2.26579     54.05540
     2.63263      2.63859     57.06505      2.29571     54.28183
     2.64264      2.67571     57.32856      2.32619     54.51123
     2.65265      2.71357     57.59576      2.35724     54.74368
     2.66266      2.75220     57.86668      2.38889     54.97923
     2.67267      2.79162     58.14145      2.42114     55.21790
     2.68268      2.83185     58.42015      2.45401     55.45980
     2.69269      2.87291     58.70285      2.48752     55.70494
