#                                                           
# :::   :::   :::     ::::    ::::  :::::::::   ::::::::    
# :+:   :+: :+: :+:   +:+:+: :+:+:+ :+:    :+: :+:    :+:   
#  +:+ +:+ +:+   +:+  +:+ +:+:+ +:+ +:+    +:+ +:+    +:+   
#   +#++: +#++:++#++: +#+  +:+  +#+ +#++:++#+  +#+    +:+   
#    +#+  +#+     +#+ +#+       +#+ +#+    +#+ +#+    +#+   
#    #+#  #+#     #+# #+#       #+# #+#    #+# #+#    #+#   
#    ###  ###     ### ###       ### #########   ########    
#                                                           
#                                                           
#        Version 4.1.2 Revision 14038 Hash bd0d05e          
#                    MPI+OpenMP Build                       
#                http://www.yambo-code.org                  
#
# Absorption @ Q(1) [q->0 direction] :0.1000E-4  0.000     0.000   
#
#
# - Energies      are GoWo Plasmon Pole appox.
# - Wavefunctions are Teter 93(XC)
#
# - The Green`s function is Retarded -
# - Using the Length Gauge -
# - [r,Vnl] *is* included -
#
#   BSK|Identifier              :7454
#      |Dimension               :96
#      |Bands                   :1 - 7
#      |Exchange           [res]: yes
#      |Correlation        [res]: yes
#      |Kernel`s coupling       : no
#      |Exchange           [cpl]: no
#      |Correlation        [cpl]: no
#      |W interaction is bare   : no
#      |ALDA kernel in R-space  : no
#      |RL vectors    [exchange]:363
#      |RL vectors [correlation]:1
#      |E/h energy range    [ev]:-1.000000 - -1.000000
#      |Coupling range     [o/o]: 100.0000 -  100.0000
#    W |Interaction is diagonal : no
#      |Matrix size             :1
#      |Bands                   :1 - 7
#      |e/h energy range    [ev]:-1.000000 - -1.000000
#      |Poles              [o/o]: 100.0000
#      |RL vectors in the sum   :363
#      |[r,Vnl] included        : yes
#      |Field direction         :0.1000E-4  0.000000  0.000000
#      |Coulomb Cutoff          :none
#      |xc-Kernel               :none
#   RIM|RL components      [col]:0
#      |Random points      [col]:0
#
#  E/ev[1]    EPS-Im[2]  EPS-Re[3]  EPSo-Im[4] EPSo-Re[5]
#
   0.00000    0.00000   35.95469    0.00000   35.28047
 0.1001E-1  0.3671E-2   35.95     0.3405E-2   35.28   
 0.2002E-1  0.7341E-2   35.96     0.6811E-2   35.28   
 0.3003E-1  0.1101E-1   35.96     0.1022E-1   35.28   
 0.4004E-1  0.1468E-1   35.96     0.1362E-1   35.28   
 0.5005E-1  0.1836E-1   35.96     0.1703E-1   35.28   
 0.6006E-1  0.2203E-1   35.96     0.2044E-1   35.29   
 0.7007E-1  0.2571E-1   35.96     0.2385E-1   35.29   
 0.8008E-1  0.2939E-1   35.97     0.2726E-1   35.29   
 0.9009E-1  0.3306E-1   35.97     0.3067E-1   35.29   
 0.1001     0.3675E-1   35.97     0.3409E-1   35.30   
   0.11011    0.04043   35.97688    0.03751   35.30106
   0.12012    0.04412   35.98111    0.04093   35.30499
   0.13013    0.04781   35.98569    0.04435   35.30924
   0.14014    0.05150   35.99064    0.04777   35.31385
   0.15015    0.05520   35.99597    0.05120   35.31878
   0.16016    0.05890   36.00166    0.05463   35.32408
   0.17017    0.06260   36.00774    0.05807   35.32970
   0.18018    0.06631   36.01420    0.06151   35.33567
   0.19019    0.07002   36.02101    0.06495   35.34199
   0.20020    0.07374   36.02817    0.06839   35.34865
   0.21021    0.07746   36.03572    0.07184   35.35564
   0.22022    0.08119   36.04362    0.07530   35.36298
   0.23023    0.08492   36.05194    0.07876   35.37069
   0.24024    0.08866   36.06061    0.08222   35.37873
   0.25025    0.09240   36.06966    0.08569   35.38711
   0.26026    0.09615   36.07904    0.08917   35.39584
   0.27027    0.09991   36.08885    0.09265   35.40492
   0.28028    0.10368   36.09903    0.09614   35.41436
   0.29029    0.10745   36.10956    0.09963   35.42413
   0.30030    0.11123   36.12048    0.10313   35.43425
   0.31031    0.11501   36.13181    0.10664   35.44474
   0.32032    0.11880   36.14346    0.11015   35.45556
   0.33033    0.12261   36.15550    0.11367   35.46674
   0.34034    0.12642   36.16796    0.11720   35.47829
   0.35035    0.13023   36.18076    0.12073   35.49015
   0.36036    0.13406   36.19397    0.12428   35.50238
   0.37037    0.13790   36.20755    0.12783   35.51498
   0.38038    0.14174   36.22150    0.13139   35.52792
   0.39039    0.14560   36.23587    0.13495   35.54122
   0.40040    0.14947   36.25060    0.13853   35.55489
   0.41041    0.15334   36.26569    0.14211   35.56891
   0.42042    0.15723   36.28121    0.14571   35.58328
   0.43043    0.16112   36.29710    0.14931   35.59801
   0.44044    0.16503   36.31343    0.15293   35.61310
   0.45045    0.16895   36.33009    0.15655   35.62855
   0.46046    0.17288   36.34716    0.16018   35.64439
   0.47047    0.17683   36.36463    0.16383   35.66056
   0.48048    0.18078   36.38249    0.16748   35.67710
   0.49049    0.18475   36.40073    0.17115   35.69401
   0.50050    0.18873   36.41936    0.17482   35.71129
   0.51051    0.19272   36.43842    0.17851   35.72894
   0.52052    0.19673   36.45787    0.18221   35.74696
   0.53053    0.20075   36.47772    0.18592   35.76534
   0.54054    0.20479   36.49796    0.18965   35.78409
   0.55055    0.20884   36.51862    0.19338   35.80323
   0.56056    0.21290   36.53966    0.19713   35.82274
   0.57057    0.21698   36.56115    0.20090   35.84260
   0.58058    0.22107   36.58301    0.20467   35.86285
   0.59059    0.22518   36.60529    0.20846   35.88349
   0.60060    0.22931   36.62798    0.21227   35.90449
   0.61061    0.23345   36.65109    0.21608   35.92589
   0.62062    0.23761   36.67463    0.21992   35.94767
   0.63063    0.24179   36.69855    0.22376   35.96982
   0.64064    0.24598   36.72291    0.22762   35.99237
   0.65065    0.25019   36.74770    0.23150   36.01529
   0.66066    0.25442   36.77288    0.23540   36.03861
   0.67067    0.25867   36.79848    0.23930   36.06231
   0.68068    0.26293   36.82453    0.24323   36.08641
   0.69069    0.26722   36.85102    0.24717   36.11090
   0.70070    0.27152   36.87793    0.25113   36.13578
   0.71071    0.27584   36.90524    0.25510   36.16105
   0.72072    0.28019   36.93300    0.25910   36.18673
   0.73073    0.28455   36.96122    0.26311   36.21280
   0.74074    0.28893   36.98982    0.26714   36.23930
   0.75075    0.29334   37.01888    0.27118   36.26617
   0.76076    0.29777   37.04842    0.27525   36.29345
   0.77077    0.30222   37.07835    0.27934   36.32115
   0.78078    0.30669   37.10877    0.28344   36.34925
   0.79079    0.31118   37.13961    0.28757   36.37775
   0.80080    0.31570   37.17091    0.29171   36.40669
   0.81081    0.32024   37.20266    0.29587   36.43602
   0.82082    0.32481   37.23486    0.30006   36.46578
   0.83083    0.32940   37.26753    0.30427   36.49596
   0.84084    0.33401   37.30064    0.30850   36.52657
   0.85085    0.33865   37.33423    0.31275   36.55758
   0.86086    0.34331   37.36827    0.31702   36.58903
   0.87087    0.34801   37.40278    0.32131   36.62089
   0.88088    0.35272   37.43777    0.32563   36.65319
   0.89089    0.35747   37.47322    0.32997   36.68593
   0.90090    0.36224   37.50915    0.33434   36.71909
   0.91091    0.36704   37.54556    0.33873   36.75269
   0.92092    0.37187   37.58244    0.34314   36.78676
   0.93093    0.37672   37.61980    0.34758   36.82123
   0.94094    0.38161   37.65767    0.35204   36.85616
   0.95095    0.38653   37.69602    0.35653   36.89155
   0.96096    0.39147   37.73486    0.36105   36.92736
   0.97097    0.39645   37.77419    0.36559   36.96365
   0.98098    0.40146   37.81403    0.37016   37.00039
   0.99099    0.40650   37.85435    0.37476   37.03758
   1.00100    0.41157   37.89519    0.37938   37.07523
   1.01101    0.41667   37.93652    0.38403   37.11335
   1.02102    0.42181   37.97838    0.38872   37.15191
   1.03103    0.42698   38.02072    0.39343   37.19096
   1.04104    0.43219   38.06362    0.39817   37.23048
   1.05105    0.43743   38.10704    0.40294   37.27048
   1.06106    0.44270   38.15098    0.40774   37.31095
   1.07107    0.44801   38.19544    0.41257   37.35192
   1.08108    0.45336   38.24043    0.41743   37.39334
   1.09109    0.45875   38.28595    0.42233   37.43527
   1.10110    0.46417   38.33204    0.42726   37.47768
   1.11111    0.46963   38.37861    0.43222   37.52059
   1.12112    0.47513   38.42580    0.43721   37.56399
   1.13113    0.48067   38.47350    0.44224   37.60788
   1.14114    0.48625   38.52175    0.44730   37.65229
   1.15115    0.49188   38.57056    0.45240   37.69721
   1.16116    0.49754   38.61995    0.45754   37.74263
   1.17117    0.50324   38.66989    0.46271   37.78857
   1.18118    0.50899   38.72042    0.46791   37.83500
   1.19119    0.51478   38.77150    0.47316   37.88199
   1.20120    0.52062   38.82317    0.47844   37.92949
   1.21121    0.52650   38.87543    0.48376   37.97752
   1.22122    0.53242   38.92828    0.48912   38.02608
   1.23123    0.53839   38.98174    0.49452   38.07518
   1.24124    0.54441   39.03576    0.49996   38.12481
   1.25125    0.55048   39.09037    0.50544   38.17501
   1.26126    0.55660   39.14566    0.51096   38.22573
   1.27127    0.56276   39.20150    0.51653   38.27700
   1.28128    0.56897   39.25797    0.52213   38.32885
   1.29129    0.57524   39.31509    0.52778   38.38126
   1.30130    0.58156   39.37279    0.53348   38.43422
   1.31131    0.58793   39.43116    0.53922   38.48777
   1.32132    0.59435   39.49016    0.54500   38.54187
   1.33133    0.60082   39.54978    0.55083   38.59657
   1.34134    0.60736   39.61005    0.55671   38.65185
   1.35135    0.61394   39.67100    0.56264   38.70770
   1.36136    0.62059   39.73258    0.56861   38.76415
   1.37137    0.62729   39.79487    0.57464   38.82121
   1.38138    0.63405   39.85778    0.58071   38.87885
   1.39139    0.64087   39.92142    0.58683   38.93712
   1.40140    0.64775   39.98568    0.59301   38.99600
   1.41141    0.65469   40.05066    0.59924   39.05550
   1.42142    0.66170   40.11636    0.60552   39.11563
   1.43143    0.66876   40.18270    0.61185   39.17638
   1.44144    0.67590   40.24977    0.61824   39.23775
   1.45145    0.68309   40.31760    0.62469   39.29978
   1.46146    0.69036   40.38612    0.63119   39.36245
   1.47147    0.69769   40.45536    0.63775   39.42575
   1.48148    0.70509   40.52534    0.64437   39.48973
   1.49149    0.71256   40.59605    0.65104   39.55436
   1.50150    0.72010   40.66754    0.65778   39.61966
   1.51151    0.72771   40.73975    0.66458   39.68565
   1.52152    0.73540   40.81273    0.67144   39.75231
   1.53153    0.74316   40.88649    0.67836   39.81966
   1.54154    0.75100   40.96101    0.68535   39.88770
   1.55155    0.75891   41.03631    0.69240   39.95642
   1.56156    0.76690   41.11240    0.69952   40.02587
   1.57157    0.77498   41.18931    0.70671   40.09601
   1.58158    0.78313   41.26701    0.71396   40.16689
   1.59159    0.79136   41.34557    0.72128   40.23849
   1.60160    0.79968   41.42490    0.72868   40.31083
   1.61161    0.80808   41.50509    0.73614   40.38389
   1.62162    0.81657   41.58611    0.74368   40.45772
   1.63163    0.82515   41.66798    0.75129   40.53230
   1.64164    0.83382   41.75069    0.75898   40.60762
   1.65165    0.84257   41.83427    0.76674   40.68374
   1.66166    0.85142   41.91876    0.77458   40.76061
   1.67167    0.86037   42.00414    0.78250   40.83827
   1.68168    0.86940   42.09040    0.79051   40.91674
   1.69169    0.87854   42.17755    0.79859   40.99601
   1.70170    0.88778   42.26561    0.80675   41.07607
   1.71171    0.89711   42.35461    0.81500   41.15696
   1.72172    0.90655   42.44454    0.82334   41.23867
   1.73173    0.91609   42.53541    0.83176   41.32121
   1.74174    0.92574   42.62724    0.84027   41.40459
   1.75175    0.93549   42.72001    0.84887   41.48885
   1.76176    0.94536   42.81381    0.85756   41.57393
   1.77177    0.95534   42.90856    0.86635   41.65990
   1.78178    0.96542   43.00429    0.87523   41.74674
   1.79179    0.97563   43.10106    0.88420   41.83450
   1.80180    0.98595   43.19883    0.89328   41.92311
   1.81181    0.99639   43.29768    0.90245   42.01263
   1.82182    1.00696   43.39752    0.91173   42.10311
   1.83183    1.01765   43.49844    0.92110   42.19451
   1.84184    1.02846   43.60040    0.93059   42.28682
   1.85185    1.03940   43.70346    0.94018   42.38009
   1.86186    1.05047   43.80762    0.94988   42.47432
   1.87187    1.06168   43.91289    0.95969   42.56952
   1.88188    1.07302   44.01930    0.96961   42.66569
   1.89189    1.08450   44.12680    0.97964   42.76287
   1.90190    1.09612   44.23547    0.98979   42.86104
   1.91191    1.10788   44.34528    1.00007   42.96025
   1.92192    1.11979   44.45627    1.01046   43.06047
   1.93193    1.13185   44.56849    1.02097   43.16173
   1.94194    1.14406   44.68188    1.03161   43.26403
   1.95195    1.15642   44.79653    1.04238   43.36740
   1.96196    1.16894   44.91236    1.05327   43.47186
   1.97197    1.18162   45.02946    1.06430   43.57740
   1.98198    1.19447   45.14781    1.07546   43.68404
   1.99199    1.20747   45.26751    1.08676   43.79179
   2.00200    1.22065   45.38844    1.09820   43.90070
   2.01201    1.23400   45.51070    1.10978   44.01073
   2.02202    1.24753   45.63433    1.12151   44.12189
   2.03203    1.26124   45.75927    1.13338   44.23426
   2.04204    1.27513   45.88559    1.14540   44.34782
   2.05205    1.28920   46.01332    1.15757   44.46255
   2.06206    1.30347   46.14246    1.16990   44.57853
   2.07207    1.31793   46.27299    1.18239   44.69571
   2.08208    1.33259   46.40498    1.19504   44.81416
   2.09209    1.34744   46.53844    1.20786   44.93388
   2.10210    1.36251   46.67335    1.22084   45.05485
   2.11211    1.37778   46.80981    1.23400   45.17716
   2.12212    1.39327   46.94778    1.24732   45.30076
   2.13213    1.40898   47.08730    1.26083   45.42568
   2.14214    1.42491   47.22836    1.27452   45.55198
   2.15215    1.44107   47.37106    1.28839   45.67960
   2.16216    1.45746   47.51534    1.30245   45.80864
   2.17217    1.47408   47.66124    1.31671   45.93909
   2.18218    1.49095   47.80883    1.33116   46.07095
   2.19219    1.50807   47.95808    1.34581   46.20425
   2.20220    1.52544   48.10909    1.36066   46.33902
   2.21221    1.54306   48.26178    1.37572   46.47527
   2.22222    1.56095   48.41625    1.39100   46.61303
   2.23223    1.57911   48.57248    1.40649   46.75232
   2.24224    1.59754   48.73055    1.42221   46.89313
   2.25225    1.61625   48.89043    1.43814   47.03553
   2.26226    1.63525   49.05222    1.45431   47.17950
   2.27227    1.65454   49.21587    1.47072   47.32512
   2.28228    1.67413   49.38145    1.48737   47.47235
   2.29229    1.69403   49.54901    1.50426   47.62126
   2.30230    1.71424   49.71853    1.52140   47.77186
   2.31231    1.73476   49.89007    1.53880   47.92415
   2.32232    1.75562   50.06367    1.55645   48.07817
   2.33233    1.77681   50.23935    1.57438   48.23397
   2.34234    1.79834   50.41709    1.59258   48.39155
   2.35235    1.82022   50.59701    1.61106   48.55095
   2.36236    1.84246   50.77913    1.62982   48.71217
   2.37237    1.86506   50.96345    1.64887   48.87531
   2.38238    1.88804   51.15000    1.66822   49.04032
   2.39239    1.91140   51.33888    1.68788   49.20724
   2.40240    1.93516   51.53009    1.70785   49.37616
   2.41241    1.95931   51.72364    1.72813   49.54704
   2.42242    1.98388   51.91961    1.74874   49.71996
   2.43243    2.00886   52.11802    1.76969   49.89493
   2.44244    2.03428   52.31892    1.79097   50.07198
   2.45245    2.06014   52.52233    1.81260   50.25116
   2.46246    2.08645   52.72834    1.83459   50.43249
   2.47247    2.11322   52.93695    1.85695   50.61601
   2.48248    2.14047   53.14824    1.87967   50.80177
   2.49249    2.16821   53.36224    1.90278   50.98979
   2.50250    2.19644   53.57899    1.92628   51.18009
   2.51251    2.22519   53.79857    1.95018   51.37276
   2.52252    2.25446   54.02096    1.97449   51.56781
   2.53253    2.28426   54.24632    1.99922   51.76524
   2.54254    2.31462   54.47461    2.02438   51.96517
   2.55255    2.34554   54.70592    2.04999   52.16761
   2.56256    2.37705   54.94033    2.07604   52.37256
   2.57257    2.40915   55.17784    2.10256   52.58014
   2.58258    2.44186   55.41855    2.12955   52.79033
   2.59259    2.47519   55.66251    2.15703   53.00322
   2.60260    2.50917   55.90981    2.18500   53.21885
   2.61261    2.54382   56.16046    2.21349   53.43726
   2.62262    2.57914   56.41455    2.24251   53.65850
   2.63263    2.61516   56.67215    2.27206   53.88260
   2.64264    2.65190   56.93332    2.30216   54.10966
   2.65265    2.68937   57.19815    2.33284   54.33974
   2.66266    2.72760   57.46667    2.36409   54.57284
   2.67267    2.76661   57.73903    2.39594   54.80906
   2.68268    2.80642   58.01523    2.42840   55.04842
   2.69269    2.84706   58.29540    2.46150   55.29102
   2.70270    2.88854   58.57956    2.49524   55.53689
   2.71271    2.93089   58.86784    2.52965   55.78612
   2.72272    2.97414   59.16035    2.56473   56.03878
   2.73273    3.01832   59.45709    2.60052   56.29489
   2.74274    3.06345   59.75822    2.63704   56.55459
   2.75275    3.10955   60.06384    2.67429   56.81788
   2.76276    3.15666   60.37408    2.71231   57.08488
   2.77277    3.20482   60.68886    2.75111   57.35564
   2.78278    3.25404   61.00850    2.79072   57.63026
   2.79279    3.30437   61.33299    2.83116   57.90883
   2.80280    3.35584   61.66244    2.87246   58.19138
   2.81281    3.40848   61.99697    2.91464   58.47799
   2.82282    3.46233   62.33670    2.95772   58.76881
   2.83283    3.51743   62.68180    3.00174   59.06391
   2.84284    3.57382   63.03228    3.04672   59.36333
   2.85285    3.63154   63.38836    3.09269   59.66723
   2.86286    3.69064   63.75009    3.13968   59.97568
   2.87287    3.75115   64.11769    3.18773   60.28876
   2.88288    3.81313   64.49126    3.23686   60.60658
   2.89289    3.87663   64.87098    3.28712   60.92929
   2.90290    3.94170   65.25687    3.33853   61.25695
   2.91291    4.00839   65.64924    3.39113   61.58968
   2.92292    4.07675   66.04814    3.44496   61.92762
   2.93293    4.14685   66.45381    3.50007   62.27087
   2.94294    4.21874   66.86637    3.55649   62.61954
   2.95295    4.29250   67.28598    3.61427   62.97380
   2.96296    4.36818   67.71278    3.67345   63.33375
   2.97297    4.44585   68.14709    3.73408   63.69954
   2.98298    4.52559   68.58901    3.79621   64.07129
   2.99299    4.60748   69.03873    3.85989   64.44914
   3.00300    4.69159   69.49650    3.92517   64.83327
   3.01301    4.77800   69.96253    3.99212   65.22383
   3.02302    4.86680   70.43698    4.06078   65.62096
   3.03303    4.95809   70.92020    4.13123   66.02489
   3.04304    5.05197   71.41230    4.20352   66.43569
   3.05305    5.14852   71.91359    4.27772   66.85362
   3.06306    5.24785   72.42434    4.35391   67.27879
   3.07307    5.35009   72.94471    4.43215   67.71146
   3.08308    5.45534   73.47514    4.51252   68.15180
   3.09309    5.56372   74.01582    4.59511   68.60001
   3.10310    5.67537   74.56705    4.68000   69.05630
   3.11311    5.79042   75.12915    4.76727   69.52094
   3.12312    5.90902   75.70245    4.85702   69.99408
   3.13313    6.03131   76.28725    4.94936   70.47599
   3.14314    6.15745   76.88400    5.04437   70.96694
   3.15315    6.28761   77.49291    5.14217   71.46714
   3.16316    6.42197   78.11448    5.24288   71.97688
   3.17317    6.56071   78.74902    5.34660   72.49642
   3.18318    6.70403   79.39708    5.45348   73.02608
   3.19319    6.85214   80.05891    5.56364   73.56612
   3.20320    7.00526   80.73504    5.67722   74.11691
   3.21321    7.16362   81.42595    5.79436   74.67869
   3.22322    7.32748   82.13212    5.91524   75.25183
   3.23323    7.49708   82.85404    6.03999   75.83670
