#                                                           
# :::   :::   :::     ::::    ::::  :::::::::   ::::::::    
# :+:   :+: :+: :+:   +:+:+: :+:+:+ :+:    :+: :+:    :+:   
#  +:+ +:+ +:+   +:+  +:+ +:+:+ +:+ +:+    +:+ +:+    +:+   
#   +#++: +#++:++#++: +#+  +:+  +#+ +#++:++#+  +#+    +:+   
#    +#+  +#+     +#+ +#+       +#+ +#+    +#+ +#+    +#+   
#    #+#  #+#     #+# #+#       #+# #+#    #+# #+#    #+#   
#    ###  ###     ### ###       ### #########   ########    
#                                                           
#                                                           
#        Version 4.2.0 Revision 14791 Hash a8d1f41          
#                        MPI Build                          
#                http://www.yambo-code.org                  
#
# EELS @ Q(1)  [q->0 direction]:0.5774E-5 0.5774E-5 0.5774E-5
#
#
# - Energies      are  Analyt. E
# - Wavefunctions are Teter 93(XC)
#
# - The Green`s function is Retarded -
# - Using the Length Gauge -
# - [r,Vnl] *is* included -
#
#   BSK|Identifier              :93
#      |Dimension               :32
#      |Bands                   :7 - 10
#      |Exchange           [res]: yes
#      |Correlation        [res]: yes
#      |Kernel`s coupling       : no
#      |Exchange           [cpl]: no
#      |Correlation        [cpl]: no
#      |W interaction is bare   : no
#      |ALDA kernel in R-space  : no
#      |RL vectors    [exchange]:51
#      |RL vectors [correlation]:51
#      |E/h energy range    [ev]:-1.000000 - -1.000000
#      |Coupling range     [o/o]: 100.0000 -  100.0000
#    W |Interaction is diagonal : no
#      |Matrix size             :51
#      |Bands                   :1 - 60
#      |e/h energy range    [ev]:-1.000000 - -1.000000
#      |Poles              [o/o]: 100.0000
#      |RL vectors in the sum   :3473
#      |[r,Vnl] included        : yes
#      |Field direction         :0.1000E-4  0.000000  0.000000
#      |Coulomb Cutoff          :none
#      |xc-Kernel               :none
#   RIM|RL components      [col]:0
#      |Random points      [col]:0
#
#    E/ev[1]      EEL-Im[2]    EEL-Re[3]    EELo-Im[4]   EELo-Re[5]
#
    4.000       0.1268E-2    -.7563E-1    0.6389E-3    -.1739   
    4.010       0.1273E-2    -.7512E-1    0.6409E-3    -.1736   
    4.020       0.1278E-2    -.7461E-1    0.6429E-3    -.1734   
    4.030       0.1282E-2    -.7409E-1    0.6450E-3    -.1731   
    4.040       0.1287E-2    -.7358E-1    0.6470E-3    -.1728   
    4.050       0.1292E-2    -.7306E-1    0.6490E-3    -.1726   
    4.060       0.1296E-2    -.7254E-1    0.6510E-3    -.1723   
    4.070       0.1301E-2    -.7202E-1    0.6531E-3    -.1721   
    4.080       0.1306E-2    -.7150E-1    0.6551E-3    -.1718   
    4.090       0.1310E-2    -.7097E-1    0.6572E-3    -.1715   
    4.100       0.1315E-2    -.7045E-1    0.6592E-3    -.1713   
    4.110       0.1320E-2    -.6992E-1    0.6613E-3    -.1710   
    4.120       0.1324E-2    -.6939E-1    0.6633E-3    -.1707   
    4.130       0.1329E-2    -.6886E-1    0.6654E-3    -.1705   
    4.140       0.1334E-2    -.6832E-1    0.6674E-3    -.1702   
    4.150       0.1339E-2    -.6779E-1    0.6695E-3    -.1699   
    4.160       0.1343E-2    -.6725E-1    0.6716E-3    -.1697   
    4.170       0.1348E-2    -.6671E-1    0.6736E-3    -.1694   
    4.180       0.1353E-2    -.6617E-1    0.6757E-3    -.1691   
    4.190       0.1358E-2    -.6563E-1    0.6778E-3    -.1689   
    4.201       0.1363E-2    -.6508E-1    0.6799E-3    -.1686   
    4.211       0.1367E-2    -.6453E-1    0.6820E-3    -.1683   
    4.221       0.1372E-2    -.6398E-1    0.6840E-3    -.1680   
    4.231       0.1377E-2    -.6343E-1    0.6861E-3    -.1678   
    4.241       0.1382E-2    -.6288E-1    0.6882E-3    -.1675   
    4.251       0.1387E-2    -.6232E-1    0.6903E-3    -.1672   
    4.261       0.1392E-2    -.6177E-1    0.6925E-3    -.1669   
    4.271       0.1397E-2    -.6121E-1    0.6946E-3    -.1667   
    4.281       0.1402E-2    -.6065E-1    0.6967E-3    -.1664   
    4.291       0.1407E-2    -.6008E-1    0.6988E-3    -.1661   
    4.301       0.1412E-2    -.5952E-1    0.7009E-3    -.1658   
    4.311       0.1417E-2    -.5895E-1    0.7030E-3    -.1655   
    4.321       0.1422E-2    -.5838E-1    0.7052E-3    -.1653   
    4.331       0.1427E-2    -.5781E-1    0.7073E-3    -.1650   
    4.341       0.1432E-2    -.5724E-1    0.7095E-3    -.1647   
    4.351       0.1437E-2    -.5666E-1    0.7116E-3    -.1644   
    4.361       0.1442E-2    -.5608E-1    0.7137E-3    -.1641   
    4.371       0.1447E-2    -.5551E-1    0.7159E-3    -.1638   
    4.381       0.1452E-2    -.5492E-1    0.7180E-3    -.1635   
    4.391       0.1457E-2    -.5434E-1    0.7202E-3    -.1633   
    4.401       0.1463E-2    -.5376E-1    0.7224E-3    -.1630   
    4.411       0.1468E-2    -.5317E-1    0.7245E-3    -.1627   
    4.421       0.1473E-2    -.5258E-1    0.7267E-3    -.1624   
    4.431       0.1478E-2    -.5199E-1    0.7289E-3    -.1621   
    4.441       0.1483E-2    -.5139E-1    0.7311E-3    -.1618   
    4.451       0.1488E-2    -.5080E-1    0.7333E-3    -.1615   
    4.461       0.1494E-2    -.5020E-1    0.7354E-3    -.1612   
    4.471       0.1499E-2    -.4960E-1    0.7376E-3    -.1609   
    4.481       0.1504E-2    -.4900E-1    0.7398E-3    -.1606   
    4.491       0.1509E-2    -.4839E-1    0.7420E-3    -.1603   
    4.501       0.1515E-2    -.4779E-1    0.7442E-3    -.1600   
    4.511       0.1520E-2    -.4718E-1    0.7465E-3    -.1597   
    4.521       0.1525E-2    -.4657E-1    0.7487E-3    -.1594   
    4.531       0.1531E-2    -.4595E-1    0.7509E-3    -.1591   
    4.541       0.1536E-2    -.4534E-1    0.7531E-3    -.1588   
    4.551       0.1542E-2    -.4472E-1    0.7554E-3    -.1585   
    4.561       0.1547E-2    -.4410E-1    0.7576E-3    -.1582   
    4.571       0.1552E-2    -.4348E-1    0.7598E-3    -.1579   
    4.581       0.1558E-2    -.4286E-1    0.7621E-3    -.1576   
    4.591       0.1563E-2    -.4223E-1    0.7643E-3    -.1573   
    4.602       0.1569E-2    -.4160E-1    0.7666E-3    -.1570   
    4.612       0.1574E-2    -.4097E-1    0.7688E-3    -.1567   
    4.622       0.1580E-2    -.4034E-1    0.7711E-3    -.1564   
    4.632       0.1585E-2    -.3971E-1    0.7733E-3    -.1561   
    4.642       0.1591E-2    -.3907E-1    0.7756E-3    -.1558   
    4.652       0.1596E-2    -.3843E-1    0.7779E-3    -.1554   
    4.662       0.1602E-2    -.3779E-1    0.7802E-3    -.1551   
    4.672       0.1608E-2    -.3715E-1    0.7825E-3    -.1548   
    4.682       0.1613E-2    -.3650E-1    0.7848E-3    -.1545   
    4.692       0.1619E-2    -.3585E-1    0.7870E-3    -.1542   
    4.702       0.1625E-2    -.3520E-1    0.7893E-3    -.1539   
    4.712       0.1630E-2    -.3455E-1    0.7916E-3    -.1536   
    4.722       0.1636E-2    -.3390E-1    0.7940E-3    -.1532   
    4.732       0.1642E-2    -.3324E-1    0.7963E-3    -.1529   
    4.742       0.1648E-2    -.3258E-1    0.7986E-3    -.1526   
    4.752       0.1654E-2    -.3192E-1    0.8009E-3    -.1523   
    4.762       0.1660E-2    -.3125E-1    0.8032E-3    -.1520   
    4.772       0.1666E-2    -.3059E-1    0.8056E-3    -.1516   
    4.782       0.1672E-2    -.2992E-1    0.8079E-3    -.1513   
    4.792       0.1679E-2    -.2925E-1    0.8103E-3    -.1510   
    4.802       0.1686E-2    -.2857E-1    0.8126E-3    -.1507   
    4.812       0.1693E-2    -.2790E-1    0.8150E-3    -.1503   
    4.822       0.1702E-2    -.2722E-1    0.8173E-3    -.1500   
    4.832       0.1709E-2    -.2654E-1    0.8197E-3    -.1497   
    4.842       0.1714E-2    -.2586E-1    0.8221E-3    -.1494   
    4.852       0.1717E-2    -.2518E-1    0.8244E-3    -.1490   
    4.862       0.1721E-2    -.2449E-1    0.8268E-3    -.1487   
    4.872       0.1726E-2    -.2380E-1    0.8292E-3    -.1484   
    4.882       0.1731E-2    -.2311E-1    0.8316E-3    -.1480   
    4.892       0.1737E-2    -.2242E-1    0.8340E-3    -.1477   
    4.902       0.1742E-2    -.2172E-1    0.8364E-3    -.1474   
    4.912       0.1748E-2    -.2102E-1    0.8388E-3    -.1470   
    4.922       0.1754E-2    -.2032E-1    0.8412E-3    -.1467   
    4.932       0.1760E-2    -.1961E-1    0.8436E-3    -.1463   
    4.942       0.1766E-2    -.1890E-1    0.8460E-3    -.1460   
    4.952       0.1772E-2    -.1820E-1    0.8485E-3    -.1457   
    4.962       0.1778E-2    -.1748E-1    0.8509E-3    -.1453   
    4.972       0.1784E-2    -.1677E-1    0.8533E-3    -.1450   
    4.982       0.1791E-2    -.1605E-1    0.8558E-3    -.1446   
    4.992       0.1797E-2    -.1533E-1    0.8582E-3    -.1443   
    5.003       0.1803E-2    -.1461E-1    0.8607E-3    -.1440   
    5.013       0.1809E-2    -.1389E-1    0.8631E-3    -.1436   
    5.023       0.1815E-2    -.1316E-1    0.8656E-3    -.1433   
    5.033       0.1822E-2    -.1243E-1    0.8681E-3    -.1429   
    5.043       0.1828E-2    -.1170E-1    0.8706E-3    -.1426   
    5.053       0.1834E-2    -.1097E-1    0.8730E-3    -.1422   
    5.063       0.1841E-2    -.1023E-1    0.8755E-3    -.1419   
    5.073       0.1847E-2    -.9489E-2    0.8780E-3    -.1415   
    5.083       0.1854E-2    -.8747E-2    0.8805E-3    -.1412   
    5.093       0.1860E-2    -.8002E-2    0.8830E-3    -.1408   
    5.103       0.1867E-2    -.7255E-2    0.8855E-3    -.1405   
    5.113       0.1873E-2    -.6505E-2    0.8881E-3    -.1401   
    5.123       0.1880E-2    -.5753E-2    0.8906E-3    -.1397   
    5.133       0.1886E-2    -.4998E-2    0.8931E-3    -.1394   
    5.143       0.1893E-2    -.4240E-2    0.8957E-3    -.1390   
    5.153       0.1899E-2    -.3480E-2    0.8982E-3    -.1387   
    5.163       0.1906E-2    -.2717E-2    0.9007E-3    -.1383   
    5.173       0.1912E-2    -.1952E-2    0.9033E-3    -.1379   
    5.183       0.1919E-2    -.1183E-2    0.9059E-3    -.1376   
    5.193       0.1926E-2    -.4126E-3    0.9084E-3    -.1372   
    5.203       0.1932E-2    0.3610E-3    0.9110E-3    -.1369   
    5.213       0.1939E-2    0.1137E-2    0.9136E-3    -.1365   
    5.223       0.1946E-2    0.1916E-2    0.9162E-3    -.1361   
    5.233       0.1953E-2    0.2698E-2    0.9188E-3    -.1357   
    5.243       0.1960E-2    0.3482E-2    0.9214E-3    -.1354   
    5.253       0.1966E-2    0.4269E-2    0.9240E-3    -.1350   
    5.263       0.1973E-2    0.5059E-2    0.9266E-3    -.1346   
    5.273       0.1980E-2    0.5852E-2    0.9292E-3    -.1343   
    5.283       0.1987E-2    0.6647E-2    0.9318E-3    -.1339   
    5.293       0.1994E-2    0.7445E-2    0.9344E-3    -.1335   
    5.303       0.2001E-2    0.8246E-2    0.9371E-3    -.1331   
    5.313       0.2008E-2    0.9050E-2    0.9397E-3    -.1328   
    5.323       0.2015E-2    0.9857E-2    0.9424E-3    -.1324   
    5.333       0.2022E-2    0.1067E-1    0.9450E-3    -.1320   
    5.343       0.2029E-2    0.1148E-1    0.9477E-3    -.1316   
    5.353       0.2036E-2    0.1229E-1    0.9504E-3    -.1313   
    5.363       0.2043E-2    0.1311E-1    0.9530E-3    -.1309   
    5.373       0.2050E-2    0.1393E-1    0.9557E-3    -.1305   
    5.383       0.2058E-2    0.1476E-1    0.9584E-3    -.1301   
    5.393       0.2065E-2    0.1558E-1    0.9611E-3    -.1297   
    5.404       0.2072E-2    0.1641E-1    0.9638E-3    -.1293   
    5.414       0.2079E-2    0.1724E-1    0.9665E-3    -.1289   
    5.424       0.2087E-2    0.1808E-1    0.9692E-3    -.1286   
    5.434       0.2094E-2    0.1892E-1    0.9720E-3    -.1282   
    5.444       0.2102E-2    0.1976E-1    0.9747E-3    -.1278   
    5.454       0.2109E-2    0.2060E-1    0.9774E-3    -.1274   
    5.464       0.2117E-2    0.2145E-1    0.9802E-3    -.1270   
    5.474       0.2125E-2    0.2230E-1    0.9829E-3    -.1266   
    5.484       0.2133E-2    0.2315E-1    0.9857E-3    -.1262   
    5.494       0.2140E-2    0.2401E-1    0.9885E-3    -.1258   
    5.504       0.2147E-2    0.2486E-1    0.9912E-3    -.1254   
    5.514       0.2154E-2    0.2573E-1    0.9940E-3    -.1250   
    5.524       0.2161E-2    0.2659E-1    0.9968E-3    -.1246   
    5.534       0.2169E-2    0.2746E-1    0.9996E-3    -.1242   
    5.544       0.2176E-2    0.2833E-1    0.1002E-2    -.1238   
    5.554       0.2184E-2    0.2920E-1    0.1005E-2    -.1234   
    5.564       0.2191E-2    0.3008E-1    0.1008E-2    -.1230   
    5.574       0.2199E-2    0.3096E-1    0.1011E-2    -.1226   
    5.584       0.2207E-2    0.3184E-1    0.1014E-2    -.1222   
    5.594       0.2214E-2    0.3273E-1    0.1017E-2    -.1218   
    5.604       0.2222E-2    0.3362E-1    0.1019E-2    -.1214   
    5.614       0.2230E-2    0.3451E-1    0.1022E-2    -.1210   
    5.624       0.2238E-2    0.3541E-1    0.1025E-2    -.1206   
    5.634       0.2246E-2    0.3631E-1    0.1028E-2    -.1202   
    5.644       0.2254E-2    0.3721E-1    0.1031E-2    -.1197   
    5.654       0.2261E-2    0.3812E-1    0.1034E-2    -.1193   
    5.664       0.2269E-2    0.3902E-1    0.1037E-2    -.1189   
    5.674       0.2277E-2    0.3994E-1    0.1040E-2    -.1185   
    5.684       0.2286E-2    0.4085E-1    0.1042E-2    -.1181   
    5.694       0.2294E-2    0.4177E-1    0.1045E-2    -.1177   
    5.704       0.2302E-2    0.4269E-1    0.1048E-2    -.1172   
    5.714       0.2310E-2    0.4361E-1    0.1051E-2    -.1168   
    5.724       0.2318E-2    0.4454E-1    0.1054E-2    -.1164   
    5.734       0.2326E-2    0.4547E-1    0.1057E-2    -.1160   
    5.744       0.2334E-2    0.4641E-1    0.1060E-2    -.1155   
    5.754       0.2343E-2    0.4735E-1    0.1063E-2    -.1151   
    5.764       0.2351E-2    0.4829E-1    0.1066E-2    -.1147   
    5.774       0.2359E-2    0.4923E-1    0.1069E-2    -.1143   
    5.784       0.2368E-2    0.5018E-1    0.1072E-2    -.1138   
    5.794       0.2376E-2    0.5113E-1    0.1075E-2    -.1134   
    5.805       0.2385E-2    0.5208E-1    0.1078E-2    -.1130   
    5.815       0.2393E-2    0.5304E-1    0.1081E-2    -.1125   
    5.825       0.2401E-2    0.5400E-1    0.1084E-2    -.1121   
    5.835       0.2410E-2    0.5497E-1    0.1087E-2    -.1117   
    5.845       0.2419E-2    0.5594E-1    0.1090E-2    -.1112   
    5.855       0.2427E-2    0.5691E-1    0.1093E-2    -.1108   
    5.865       0.2436E-2    0.5788E-1    0.1096E-2    -.1104   
    5.875       0.2445E-2    0.5886E-1    0.1099E-2    -.1099   
    5.885       0.2453E-2    0.5984E-1    0.1103E-2    -.1095   
    5.895       0.2462E-2    0.6083E-1    0.1106E-2    -.1090   
    5.905       0.2471E-2    0.6182E-1    0.1109E-2    -.1086   
    5.915       0.2480E-2    0.6281E-1    0.1112E-2    -.1081   
    5.925       0.2488E-2    0.6381E-1    0.1115E-2    -.1077   
    5.935       0.2497E-2    0.6481E-1    0.1118E-2    -.1073   
    5.945       0.2506E-2    0.6581E-1    0.1121E-2    -.1068   
    5.955       0.2515E-2    0.6682E-1    0.1124E-2    -.1064   
    5.965       0.2524E-2    0.6783E-1    0.1128E-2    -.1059   
    5.975       0.2533E-2    0.6884E-1    0.1131E-2    -.1054   
    5.985       0.2542E-2    0.6986E-1    0.1134E-2    -.1050   
    5.995       0.2552E-2    0.7088E-1    0.1137E-2    -.1045   
    6.005       0.2561E-2    0.7190E-1    0.1140E-2    -.1041   
    6.015       0.2570E-2    0.7293E-1    0.1144E-2    -.1036   
    6.025       0.2579E-2    0.7396E-1    0.1147E-2    -.1032   
    6.035       0.2588E-2    0.7500E-1    0.1150E-2    -.1027   
    6.045       0.2598E-2    0.7604E-1    0.1153E-2    -.1022   
    6.055       0.2607E-2    0.7708E-1    0.1157E-2    -.1018   
    6.065       0.2616E-2    0.7813E-1    0.1160E-2    -.1013   
    6.075       0.2626E-2    0.7918E-1    0.1163E-2    -.1008   
    6.085       0.2635E-2    0.8024E-1    0.1166E-2    -.1004   
    6.095       0.2645E-2    0.8130E-1    0.1170E-2    -.9991E-1
    6.105       0.2654E-2    0.8236E-1    0.1173E-2    -.9944E-1
    6.115       0.2664E-2    0.8342E-1    0.1176E-2    -.9897E-1
    6.125       0.2674E-2    0.8450E-1    0.1180E-2    -.9850E-1
    6.135       0.2683E-2    0.8557E-1    0.1183E-2    -.9803E-1
    6.145       0.2693E-2    0.8665E-1    0.1186E-2    -.9755E-1
    6.155       0.2703E-2    0.8773E-1    0.1190E-2    -.9707E-1
    6.165       0.2713E-2    0.8881E-1    0.1193E-2    -.9660E-1
    6.175       0.2723E-2    0.8990E-1    0.1197E-2    -.9612E-1
    6.185       0.2732E-2    0.9100E-1    0.1200E-2    -.9564E-1
    6.195       0.2742E-2    0.9210E-1    0.1203E-2    -.9516E-1
    6.206       0.2752E-2    0.9320E-1    0.1207E-2    -.9467E-1
    6.216       0.2762E-2    0.9430E-1    0.1210E-2    -.9419E-1
    6.226       0.2772E-2    0.9541E-1    0.1214E-2    -.9370E-1
    6.236       0.2783E-2    0.9653E-1    0.1217E-2    -.9321E-1
    6.246       0.2793E-2    0.9764E-1    0.1221E-2    -.9273E-1
    6.256       0.2803E-2    0.9877E-1    0.1224E-2    -.9224E-1
    6.266       0.2813E-2    0.9989E-1    0.1228E-2    -.9174E-1
    6.276       0.2823E-2    0.1010       0.1231E-2    -.9125E-1
    6.286       0.2834E-2    0.1022       0.1235E-2    -.9076E-1
    6.296       0.2844E-2    0.1033       0.1238E-2    -.9026E-1
    6.306       0.2855E-2    0.1044       0.1242E-2    -.8976E-1
    6.316       0.2865E-2    0.1056       0.1246E-2    -.8926E-1
    6.326       0.2876E-2    0.1067       0.1249E-2    -.8876E-1
    6.336       0.2886E-2    0.1079       0.1253E-2    -.8826E-1
    6.346       0.2897E-2    0.1091       0.1256E-2    -.8776E-1
    6.356       0.2908E-2    0.1102       0.1260E-2    -.8725E-1
    6.366       0.2918E-2    0.1114       0.1264E-2    -.8675E-1
    6.376       0.2929E-2    0.1126       0.1267E-2    -.8624E-1
    6.386       0.2940E-2    0.1137       0.1271E-2    -.8573E-1
    6.396       0.2951E-2    0.1149       0.1275E-2    -.8522E-1
    6.406       0.2962E-2    0.1161       0.1278E-2    -.8471E-1
    6.416       0.2973E-2    0.1173       0.1282E-2    -.8420E-1
    6.426       0.2984E-2    0.1185       0.1286E-2    -.8368E-1
    6.436       0.2995E-2    0.1197       0.1290E-2    -.8317E-1
    6.446       0.3006E-2    0.1209       0.1293E-2    -.8265E-1
    6.456       0.3017E-2    0.1221       0.1297E-2    -.8213E-1
    6.466       0.3028E-2    0.1233       0.1301E-2    -.8161E-1
    6.476       0.3039E-2    0.1245       0.1305E-2    -.8108E-1
    6.486       0.3051E-2    0.1257       0.1309E-2    -.8056E-1
    6.496       0.3062E-2    0.1270       0.1313E-2    -.8003E-1
    6.506       0.3073E-2    0.1282       0.1317E-2    -.7951E-1
    6.516       0.3085E-2    0.1294       0.1320E-2    -.7898E-1
    6.526       0.3096E-2    0.1307       0.1324E-2    -.7845E-1
    6.536       0.3108E-2    0.1319       0.1328E-2    -.7792E-1
    6.546       0.3120E-2    0.1332       0.1332E-2    -.7738E-1
    6.556       0.3131E-2    0.1344       0.1336E-2    -.7685E-1
    6.566       0.3143E-2    0.1357       0.1340E-2    -.7631E-1
    6.576       0.3155E-2    0.1369       0.1344E-2    -.7577E-1
    6.586       0.3167E-2    0.1382       0.1348E-2    -.7523E-1
    6.596       0.3179E-2    0.1395       0.1352E-2    -.7469E-1
    6.607       0.3191E-2    0.1408       0.1356E-2    -.7415E-1
    6.617       0.3203E-2    0.1420       0.1361E-2    -.7360E-1
    6.627       0.3215E-2    0.1433       0.1365E-2    -.7306E-1
    6.637       0.3227E-2    0.1446       0.1369E-2    -.7251E-1
    6.647       0.3239E-2    0.1459       0.1373E-2    -.7196E-1
    6.657       0.3251E-2    0.1472       0.1377E-2    -.7141E-1
    6.667       0.3264E-2    0.1485       0.1381E-2    -.7086E-1
    6.677       0.3276E-2    0.1498       0.1386E-2    -.7030E-1
    6.687       0.3289E-2    0.1511       0.1390E-2    -.6974E-1
    6.697       0.3301E-2    0.1525       0.1394E-2    -.6919E-1
    6.707       0.3314E-2    0.1538       0.1398E-2    -.6863E-1
    6.717       0.3326E-2    0.1551       0.1403E-2    -.6807E-1
    6.727       0.3339E-2    0.1565       0.1407E-2    -.6750E-1
    6.737       0.3352E-2    0.1578       0.1412E-2    -.6694E-1
