#                                                           
# :::   :::   :::     ::::    ::::  :::::::::   ::::::::    
# :+:   :+: :+: :+:   +:+:+: :+:+:+ :+:    :+: :+:    :+:   
#  +:+ +:+ +:+   +:+  +:+ +:+:+ +:+ +:+    +:+ +:+    +:+   
#   +#++: +#++:++#++: +#+  +:+  +#+ +#++:++#+  +#+    +:+   
#    +#+  +#+     +#+ +#+       +#+ +#+    +#+ +#+    +#+   
#    #+#  #+#     #+# #+#       #+# #+#    #+# #+#    #+#   
#    ###  ###     ### ###       ### #########   ########    
#                                                           
#                                                           
#        Version 4.2.0 Revision 14428 Hash 698a636          
#                  MPI+SLK+OpenMP Build                     
#                http://www.yambo-code.org                  
#
# Absorption @ Q(1) [q->0 direction] :0.1000E-4  0.000     0.000   
#
#
# - Energies      are GoWo Plasmon Pole appox.
# - Wavefunctions are Slater exchange(X)+Perdew & Zunger(C)
#
# - The Green`s function is Retarded -
# - Using the Length Gauge -
# - [r,Vnl] *is* included -
#
#   BSK|Identifier              :7981
#      |Dimension               :100
#      |Bands                   :2 - 7
#      |Exchange           [res]: yes
#      |Correlation        [res]: yes
#      |Kernel`s coupling       : no
#      |Exchange           [cpl]: no
#      |Correlation        [cpl]: no
#      |W interaction is bare   : no
#      |ALDA kernel in R-space  : no
#      |RL vectors    [exchange]:531
#      |RL vectors [correlation]:59
#      |E/h energy range    [ev]:-1.000000 - -1.000000
#      |Coupling range     [o/o]: 100.0000 -  100.0000
#    W |Interaction is diagonal : no
#      |Matrix size             :59
#      |Bands                   :1 - 8
#      |e/h energy range    [ev]:-1.000000 - -1.000000
#      |Poles              [o/o]: 100.0000
#      |RL vectors in the sum   :387
#      |[r,Vnl] included        : yes
#      |Field direction         :0.1000E-4  0.000000  0.000000
#      |Coulomb Cutoff          :none
#      |xc-Kernel               :none
#   RIM|RL components      [col]:0
#      |Random points      [col]:0
#  
#   Haydock|Accuracy (requested) [o/o]:  0.02000
#          |Accuracy (reached)   [o/o]:   0.0020
#          |Iteration                 :18
#
#    E/ev[1]      EPS-Im[2]    EPS-Re[3]    EPSo-Im[4]   EPSo-Re[5]   EPS`-Im[6]   EPS`-Re[7]
#
     0.00000      0.00000     46.37360      0.00000     41.44965      0.00000     46.37360
   0.2004E-1    0.1415E-1     46.38       0.1015E-1     41.45       0.1415E-1     46.38   
   0.4008E-1    0.2830E-1     46.38       0.2030E-1     41.45       0.2830E-1     46.38   
   0.6012E-1    0.4246E-1     46.39       0.3045E-1     41.46       0.4246E-1     46.39   
   0.8016E-1    0.5664E-1     46.40       0.4062E-1     41.47       0.5664E-1     46.40   
     0.10020      0.07085     46.40895      0.05080     41.47502      0.07085     46.40895
     0.12024      0.08508     46.42452      0.06099     41.48622      0.08508     46.42452
     0.14028      0.09934     46.44294      0.07121     41.49943      0.09934     46.44294
     0.16032      0.11364     46.46421      0.08145     41.51468      0.11364     46.46421
     0.18036      0.12799     46.48834      0.09171     41.53198      0.12799     46.48834
     0.20040      0.14239     46.51534      0.10201     41.55133      0.14239     46.51534
     0.22044      0.15684     46.54522      0.11234     41.57276      0.15684     46.54522
     0.24048      0.17136     46.57800      0.12270     41.59625      0.17136     46.57800
     0.26052      0.18594     46.61368      0.13311     41.62179      0.18594     46.61368
     0.28056      0.20060     46.65229      0.14356     41.64944      0.20060     46.65229
     0.30060      0.21534     46.69382      0.15405     41.67917      0.21534     46.69382
     0.32064      0.23017     46.73831      0.16460     41.71102      0.23017     46.73831
     0.34068      0.24509     46.78577      0.17520     41.74499      0.24509     46.78577
     0.36072      0.26010     46.83622      0.18586     41.78107      0.26010     46.83622
     0.38076      0.27523     46.88968      0.19658     41.81927      0.27523     46.88968
     0.40080      0.29046     46.94616      0.20737     41.85965      0.29046     46.94616
     0.42084      0.30581     47.00571      0.21823     41.90216      0.30581     47.00571
     0.44088      0.32129     47.06833      0.22916     41.94688      0.32129     47.06833
     0.46092      0.33690     47.13405      0.24017     41.99375      0.33690     47.13405
     0.48096      0.35265     47.20290      0.25126     42.04286      0.35265     47.20290
     0.50100      0.36855     47.27491      0.26243     42.09418      0.36855     47.27491
     0.52104      0.38460     47.35011      0.27370     42.14774      0.38460     47.35011
     0.54108      0.40081     47.42853      0.28505     42.20355      0.40081     47.42853
     0.56112      0.41719     47.51020      0.29651     42.26166      0.41719     47.51020
     0.58116      0.43375     47.59517      0.30807     42.32211      0.43375     47.59517
     0.60120      0.45049     47.68345      0.31974     42.38478      0.45049     47.68345
     0.62124      0.46743     47.77509      0.33152     42.44984      0.46743     47.77509
     0.64128      0.48457     47.87013      0.34342     42.51729      0.48457     47.87013
     0.66132      0.50192     47.96862      0.35543     42.58708      0.50192     47.96862
     0.68136      0.51949     48.07058      0.36758     42.65936      0.51949     48.07058
     0.70140      0.53728     48.17608      0.37986     42.73399      0.53728     48.17608
     0.72144      0.55532     48.28514      0.39227     42.81111      0.55532     48.28514
     0.74148      0.57361     48.39783      0.40483     42.89077      0.57361     48.39783
     0.76152      0.59215     48.51420      0.41753     42.97292      0.59215     48.51420
     0.78156      0.61097     48.63430      0.43039     43.05761      0.61097     48.63430
     0.80160      0.63006     48.75817      0.44341     43.14488      0.63006     48.75817
     0.82164      0.64945     48.88588      0.45659     43.23477      0.64945     48.88588
     0.84168      0.66913     49.01748      0.46994     43.32732      0.66913     49.01748
     0.86172      0.68914     49.15303      0.48348     43.42258      0.68914     49.15303
     0.88176      0.70947     49.29261      0.49719     43.52050      0.70947     49.29261
     0.90180      0.73013     49.43628      0.51110     43.62121      0.73013     49.43628
     0.92184      0.75115     49.58410      0.52521     43.72472      0.75115     49.58410
     0.94188      0.77254     49.73615      0.53952     43.83104      0.77254     49.73615
     0.96192      0.79431     49.89250      0.55405     43.94025      0.79431     49.89250
     0.98196      0.81647     50.05322      0.56879     44.05239      0.81647     50.05322
     1.00200      0.83905     50.21840      0.58377     44.16746      0.83905     50.21840
     1.02204      0.86205     50.38811      0.59898     44.28559      0.86205     50.38811
     1.04208      0.88549     50.56247      0.61443     44.40673      0.88549     50.56247
     1.06212      0.90939     50.74152      0.63014     44.53102      0.90939     50.74152
     1.08216      0.93377     50.92539      0.64611     44.65843      0.93377     50.92539
     1.10220      0.95865     51.11416      0.66236     44.78908      0.95865     51.11416
     1.12224      0.98404     51.30793      0.67888     44.92300      0.98404     51.30793
     1.14228      1.00996     51.50681      0.69570     45.06025      1.00996     51.50681
     1.16232      1.03644     51.71091      0.71282     45.20086      1.03644     51.71091
     1.18236      1.06350     51.92033      0.73025     45.34490      1.06350     51.92033
     1.20240      1.09116     52.13519      0.74801     45.49247      1.09116     52.13519
     1.22244      1.11944     52.35563      0.76610     45.64364      1.11944     52.35563
     1.24248      1.14837     52.58175      0.78454     45.79841      1.14837     52.58175
     1.26252      1.17798     52.81370      0.80334     45.95689      1.17798     52.81370
     1.28257      1.20828     53.05159      0.82252     46.11916      1.20828     53.05159
     1.30261      1.23932     53.29559      0.84208     46.28531      1.23932     53.29559
     1.32265      1.27111     53.54583      0.86204     46.45537      1.27111     53.54583
     1.34269      1.30369     53.80247      0.88242     46.62945      1.30369     53.80247
     1.36273      1.33710     54.06567      0.90323     46.80764      1.33710     54.06567
     1.38277      1.37136     54.33559      0.92449     46.99001      1.37136     54.33559
     1.40281      1.40651     54.61239      0.94621     47.17664      1.40651     54.61239
     1.42285      1.44259     54.89628      0.96841     47.36765      1.44259     54.89628
     1.44289      1.47963     55.18742      0.99111     47.56317      1.47963     55.18742
     1.46293      1.51768     55.48602      1.01433     47.76321      1.51768     55.48602
     1.48297      1.55679     55.79227      1.03808     47.96793      1.55679     55.79227
     1.50301      1.59699     56.10639      1.06240     48.17743      1.59699     56.10639
     1.52305      1.63834     56.42861      1.08729     48.39185      1.63834     56.42861
     1.54309      1.68087     56.75914      1.11279     48.61125      1.68087     56.75914
     1.56313      1.72466     57.09822      1.13892     48.83580      1.72466     57.09822
     1.58317      1.76975     57.44611      1.16569     49.06562      1.76975     57.44611
     1.60321      1.81620     57.80308      1.19314     49.30082      1.81620     57.80308
     1.62325      1.86407     58.16939      1.22130     49.54152      1.86407     58.16939
     1.64329      1.91343     58.54533      1.25019     49.78791      1.91343     58.54533
     1.66333      1.96435     58.93119      1.27984     50.04012      1.96435     58.93119
     1.68337      2.01690     59.32730      1.31029     50.29829      2.01690     59.32730
     1.70341      2.07116     59.73397      1.34157     50.56258      2.07116     59.73397
     1.72345      2.12721     60.15155      1.37370     50.83317      2.12721     60.15155
     1.74349      2.18514     60.58039      1.40674     51.11020      2.18514     60.58039
     1.76353      2.24504     61.02087      1.44071     51.39388      2.24504     61.02087
     1.78357      2.30701     61.47339      1.47566     51.68444      2.30701     61.47339
     1.80361      2.37116     61.93835      1.51163     51.98202      2.37116     61.93835
     1.82365      2.43759     62.41616      1.54867     52.28680      2.43759     62.41616
     1.84369      2.50640     62.90731      1.58682     52.59908      2.50640     62.90731
     1.86373      2.57772     63.41224      1.62613     52.91901      2.57772     63.41224
     1.88377      2.65166     63.93149      1.66666     53.24688      2.65166     63.93149
     1.90381      2.72836     64.46559      1.70847     53.58287      2.72836     64.46559
     1.92385      2.80798     65.01512      1.75160     53.92725      2.80798     65.01512
     1.94389      2.89070     65.58067      1.79613     54.28031      2.89070     65.58067
     1.96393      2.97669     66.16284      1.84213     54.64235      2.97669     66.16284
     1.98397      3.06614     66.76230      1.88966     55.01366      3.06614     66.76230
     2.00401      3.15925     67.37970      1.93879     55.39447      3.15925     67.37970
     2.02405      3.25623     68.01580      1.98961     55.78517      3.25623     68.01580
     2.04409      3.35730     68.67134      2.04221     56.18609      3.35730     68.67134
     2.06413      3.46271     69.34717      2.09667     56.59757      3.46271     69.34717
     2.08417      3.57271     70.04411      2.15309     57.02003      3.57271     70.04411
     2.10421      3.68759     70.76309      2.21157     57.45377      3.68759     70.76309
     2.12425      3.80764     71.50507      2.27223     57.89928      3.80764     71.50507
     2.14429      3.93320     72.27110      2.33518     58.35696      3.93320     72.27110
     2.16433      4.06461     73.06225      2.40053     58.82729      4.06461     73.06225
     2.18437      4.20226     73.87968      2.46844     59.31075      4.20226     73.87968
     2.20441      4.34656     74.72464      2.53905     59.80782      4.34656     74.72464
     2.22445      4.49795     75.59843      2.61249     60.31908      4.49795     75.59843
     2.24449      4.65693     76.50246      2.68896     60.84502      4.65693     76.50246
     2.26453      4.82402     77.43819      2.76861     61.38630      4.82402     77.43819
     2.28457      4.99980     78.40729      2.85164     61.94355      4.99980     78.40729
     2.30461      5.18490     79.41142      2.93826     62.51748      5.18490     79.41142
     2.32465      5.37999     80.45242      3.02869     63.10868      5.37999     80.45242
     2.34469      5.58585     81.53224      3.12318     63.71805      5.58585     81.53224
     2.36473      5.80327     82.65301      3.22197     64.34628      5.80327     82.65301
     2.38477      6.03318     83.81698      3.32536     64.99427      6.03318     83.81698
     2.40481      6.27656     85.02660      3.43365     65.66296      6.27656     85.02660
     2.42485      6.53450     86.28447      3.54718     66.35326      6.53450     86.28447
     2.44489      6.80822     87.59344      3.66630     67.06625      6.80822     87.59344
     2.46493      7.09904     88.95656      3.79141     67.80296      7.09904     88.95656
     2.48497      7.40846     90.37714      3.92294     68.56466      7.40846     90.37714
     2.50501      7.73811     91.85876      4.06137     69.35255      7.73811     91.85876
     2.52505      8.08984     93.40535      4.20720     70.16801      8.08984     93.40535
     2.54509      8.46568     95.02110      4.36102     71.01245      8.46568     95.02110
     2.56513      8.86792     96.71062      4.52344     71.88747      8.86792     96.71063
     2.58517      9.29913     98.47897      4.69515     72.79473      9.29913     98.47897
      2.6052       9.7622     100.3316       4.8769      73.7360       9.7622     100.3316
      2.6253      10.2604     102.2746       5.0696      74.7133      10.2604     102.2746
      2.6453      10.7974     104.3144       5.2741      75.7287      10.7974     104.3144
      2.6653      11.3773     106.4585       5.4914      76.7845      11.3773     106.4585
      2.6854      12.0050     108.7146       5.7228      77.8831      12.0050     108.7146
      2.7054      12.6859     111.0917       5.9695      79.0272      12.6859     111.0917
      2.7255      13.4263     113.5995       6.2330      80.2199      13.4263     113.5995
      2.7455      14.2332     116.2488       6.5149      81.4641      14.2332     116.2488
      2.7655      15.1150     119.0515       6.8171      82.7635      15.1150     119.0515
      2.7856      16.0813     122.0211       7.1417      84.1217      16.0813     122.0211
      2.8056      17.1434     125.1724       7.4910      85.5431      17.1434     125.1724
      2.8257      18.3144     128.5221       7.8678      87.0322      18.3144     128.5221
      2.8457      19.6098     132.0889       8.2751      88.5940      19.6098     132.0889
      2.8657      21.0477     135.8938       8.7166      90.2341      21.0477     135.8938
      2.8858      22.6501     139.9602       9.1963      91.9587      22.6501     139.9602
      2.9058      24.4429     144.3150       9.7190      93.7746      24.4429     144.3150
      2.9259      26.4575     148.9883      10.2903      95.6896      26.4575     148.9883
      2.9459      28.7318     154.0139      10.9167      97.7119      28.7318     154.0139
      2.9659      31.3122     159.4304      11.6059      99.8511      31.3122     159.4304
      2.9860      34.2557     165.2812      12.3669     102.1178      34.2557     165.2812
      3.0060      37.6329     171.6152      13.2106     104.5238      37.6328     171.6152
      3.0261      41.5317     178.4874      14.1499     107.0824      41.5317     178.4874
      3.0461      46.0634     185.9588      15.2004     109.8087      46.0634     185.9588
      3.0661      51.3689     194.0960      16.3812     112.7196      51.3689     194.0960
      3.0862      57.6292     202.9701      17.7155     115.8339      57.6291     202.9701
      3.1062      65.0781     212.6528      19.2321     119.1728      65.0781     212.6529
      3.1263      74.0214     223.2104      20.9668     122.7599      74.0214     223.2105
      3.1463      84.8609     234.6893      22.9647     126.6217      84.8609     234.6894
      3.1663      98.1283     247.0913      25.2828     130.7864      98.1284     247.0915
      3.1864     114.5293     260.3282      27.9940     135.2843     114.5295     260.3283
      3.2064     134.9947     274.1375      31.1927     140.1456     134.9949     274.1377
      3.2265     160.7332     287.9355      35.0021     145.3978     160.7334     287.9356
      3.2465     193.2446     300.5598      39.5834     151.0598     193.2450     300.5598
      3.2665     234.2113     309.8531      45.1501     157.1307     234.2119     309.8531
      3.2866     285.0437     312.0680      51.9839     163.5705     285.0443     312.0677
      3.3066     345.7055     301.2900      60.4547     170.2635     345.7064     301.2894
      3.3267     412.4055     269.6952      71.0363     176.9555     412.4062     269.6940
      3.3467     474.7742     210.4070      84.3026     183.1454     474.7744     210.4055
      3.3667     516.0225     124.1168     100.8584     187.9143     516.0219     124.1149
      3.3868     520.9972      24.8609     121.1111     189.7022     520.9957      24.8592
      3.4068     488.1420     -64.9845     144.7278     186.1545     488.1401     -64.9852
      3.4269     430.9475    -129.0193     169.6922     174.4418     430.9454    -129.0191
      3.4469     366.8535    -164.3069     191.4570     152.7382     366.8513    -164.3060
      3.4669     307.7168    -176.8975     203.8163     122.8099     307.7154    -176.8961
      3.4870     258.4724    -174.7613     202.6683      91.1225     258.4712    -174.7596
      3.5070     219.7872    -164.2332     189.5595      65.5073     219.7867    -164.2314
      3.5271     190.5832    -149.4389     170.3522      50.2501     190.5830    -149.4368
      3.5471     169.4174    -132.8220     150.8890      45.0436     169.4176    -132.8200
      3.5671     155.0500    -115.7889     134.6071      47.3073     155.0506    -115.7868
      3.5872     146.6152     -99.2077     122.7799      54.3610     146.6164     -99.2057
      3.6072     143.6252     -83.7764     115.5585      64.2433     143.6269     -83.7744
      3.6273     145.8838     -70.3235     112.7490      75.7066     145.8861     -70.3218
      3.6473     153.2839     -60.0949     114.2076      87.9676     153.2869     -60.0938
      3.6673     165.3749     -54.9885     120.0069     100.4466     165.3785     -54.9884
      3.6874     180.5710     -57.4929     130.4910     112.5240     180.5749     -57.4941
      3.7074     195.2118     -69.7495     146.2593     123.2811     195.2154     -69.7524
      3.7275     203.6352     -91.3971     168.0378     131.1734     203.6371     -91.4013
      3.7475     200.8245    -117.7410     196.2870     133.6375     200.8245    -117.7455
      3.7675     186.2572    -141.4625     230.3069     126.8232     186.2555    -141.4662
      3.7876     164.2691    -157.2723     266.6857     106.0955     164.2666    -157.2747
      3.8076     140.4105    -164.2562     297.8952      68.4258     140.4078    -164.2574
      3.8277     118.3965    -164.3720     313.6684      16.6122     118.3941    -164.3724
      3.8477      99.7117    -160.1684     307.1082     -38.8616      99.7097    -160.1682
