#                                                           
#  /$$     /$$ /$$$$$$  /$$      /$$ /$$$$$$$   /$$$$$$     
# |  $$   /$$//$$__  $$| $$$    /$$$| $$__  $$ /$$__  $$    
#  \  $$ /$$/| $$  \ $$| $$$$  /$$$$| $$  \ $$| $$  \ $$    
#   \  $$$$/ | $$$$$$$$| $$ $$/$$ $$| $$$$$$$ | $$  | $$    
#    \  $$/  | $$__  $$| $$  $$$| $$| $$__  $$| $$  | $$    
#     | $$   | $$  | $$| $$\  $ | $$| $$  \ $$| $$  | $$    
#     | $$   | $$  | $$| $$ \/  | $$| $$$$$$$/|  $$$$$$/    
#     |__/   |__/  |__/|__/     |__/|_______/  \______/     
#                                                           
#       Version 4.2.0 Revision 14600 Hash 48c5260           
#                  MPI+SLK+OpenMP Build                     
#               http://www.yambo-code.org                   
#
# Absorption @ Q(1) [q->0 direction] :0.1000E-4  0.000     0.000   
#
#
# - Energies      are  E < 08_cohsex_eq/ndb.QP + E Fit
# - Wavefunctions are Slater exchange(X)+Perdew & Zunger(C)
#
# - The Green`s function is Retarded -
# - Using the Length Gauge -
# - [r,Vnl] *is* included -
#
#   BSK|Identifier              :7783
#      |Dimension               :100
#      |Bands                   :2 - 7
#      |Exchange           [res]: yes
#      |Correlation        [res]: yes
#      |Kernel`s coupling       : no
#      |Exchange           [cpl]: no
#      |Correlation        [cpl]: no
#      |W interaction is bare   : no
#      |ALDA kernel in R-space  : no
#      |RL vectors    [exchange]:531
#      |RL vectors [correlation]:59
#      |E/h energy range    [ev]:-1.000000 - -1.000000
#      |Coupling range     [o/o]: 100.0000 -  100.0000
#    W |Interaction is diagonal : no
#      |Matrix size             :59
#      |Bands                   :1 - 8
#      |e/h energy range    [ev]:-1.000000 - -1.000000
#      |Poles              [o/o]: 100.0000
#      |RL vectors in the sum   :387
#      |[r,Vnl] included        : yes
#      |Field direction         :0.1000E-4  0.000000  0.000000
#      |Coulomb Cutoff          :none
#      |xc-Kernel               :none
#   RIM|RL components      [col]:0
#      |Random points      [col]:0
#  
#   Haydock|Accuracy (requested) [o/o]:  0.02000
#          |Accuracy (reached)   [o/o]:  0.01030
#          |Iteration                 :28
#
#    E/ev[1]      EPS-Im[2]    EPS-Re[3]    EPSo-Im[4]   EPSo-Re[5]   EPS`-Im[6]   EPS`-Re[7]
#
     0.00000      0.00000     27.44223      0.00000     23.43287      0.00000     27.44223
   0.2004E-1    0.6775E-2     27.44       0.4144E-2     23.43       0.6775E-2     27.44   
   0.4008E-1    0.1355E-1     27.44       0.8290E-2     23.43       0.1355E-1     27.44   
   0.6012E-1    0.2033E-1     27.45       0.1244E-1     23.44       0.2033E-1     27.45   
   0.8016E-1    0.2712E-1     27.45       0.1659E-1     23.44       0.2712E-1     27.45   
   0.1002       0.3392E-1     27.46       0.2074E-1     23.44       0.3392E-1     27.46   
   0.1202       0.4073E-1     27.47       0.2490E-1     23.45       0.4073E-1     27.47   
     0.14028      0.04755     27.47544      0.02907     23.45320      0.04755     27.47544
     0.16032      0.05438     27.48563      0.03324     23.45943      0.05438     27.48563
     0.18036      0.06124     27.49718      0.03742     23.46650      0.06124     27.49718
     0.20040      0.06811     27.51011      0.04161     23.47440      0.06811     27.51011
     0.22044      0.07501     27.52441      0.04580     23.48314      0.07501     27.52441
     0.24048      0.08192     27.54009      0.05001     23.49272      0.08192     27.54009
     0.26052      0.08887     27.55716      0.05423     23.50315      0.08887     27.55716
     0.28056      0.09584     27.57562      0.05847     23.51442      0.09584     27.57562
     0.30060      0.10285     27.59548      0.06271     23.52653      0.10285     27.59548
     0.32064      0.10989     27.61673      0.06698     23.53951      0.10989     27.61673
     0.34068      0.11696     27.63940      0.07126     23.55334      0.11696     27.63940
     0.36072      0.12408     27.66349      0.07555     23.56801      0.12408     27.66349
     0.38076      0.13123     27.68900      0.07986     23.58355      0.13123     27.68900
     0.40080      0.13843     27.71594      0.08420     23.59995      0.13843     27.71594
     0.42084      0.14567     27.74433      0.08855     23.61723      0.14567     27.74433
     0.44088      0.15296     27.77417      0.09292     23.63540      0.15296     27.77417
     0.46092      0.16030     27.80547      0.09732     23.65441      0.16030     27.80547
     0.48096      0.16770     27.83825      0.10174     23.67430      0.16770     27.83825
     0.50100      0.17515     27.87250      0.10619     23.69510      0.17515     27.87250
     0.52104      0.18266     27.90825      0.11066     23.71678      0.18266     27.90825
     0.54108      0.19023     27.94551      0.11515     23.73935      0.19023     27.94551
     0.56112      0.19786     27.98429      0.11968     23.76284      0.19786     27.98429
     0.58116      0.20557     28.02459      0.12424     23.78724      0.20557     28.02459
     0.60120      0.21334     28.06645      0.12882     23.81254      0.21334     28.06645
     0.62124      0.22119     28.10986      0.13344     23.83876      0.22119     28.10986
     0.64128      0.22911     28.15485      0.13809     23.86591      0.22911     28.15485
     0.66132      0.23711     28.20143      0.14278     23.89400      0.23711     28.20143
     0.68136      0.24520     28.24961      0.14750     23.92301      0.24520     28.24961
     0.70140      0.25337     28.29942      0.15226     23.95300      0.25337     28.29942
     0.72144      0.26163     28.35087      0.15706     23.98391      0.26163     28.35087
     0.74148      0.26998     28.40398      0.16190     24.01580      0.26998     28.40398
     0.76152      0.27843     28.45877      0.16677     24.04867      0.27843     28.45877
     0.78156      0.28698     28.51525      0.17170     24.08251      0.28698     28.51525
     0.80160      0.29564     28.57345      0.17666     24.11735      0.29564     28.57345
     0.82164      0.30440     28.63339      0.18167     24.15317      0.30440     28.63339
     0.84168      0.31327     28.69509      0.18673     24.19000      0.31327     28.69509
     0.86172      0.32226     28.75857      0.19184     24.22786      0.32226     28.75857
     0.88176      0.33137     28.82386      0.19700     24.26672      0.33137     28.82386
     0.90180      0.34060     28.89098      0.20221     24.30664      0.34060     28.89098
     0.92184      0.34996     28.95995      0.20748     24.34760      0.34996     28.95995
     0.94188      0.35945     29.03081      0.21280     24.38962      0.35945     29.03081
     0.96192      0.36909     29.10357      0.21817     24.43270      0.36909     29.10357
     0.98196      0.37886     29.17827      0.22361     24.47687      0.37886     29.17827
     1.00200      0.38878     29.25494      0.22911     24.52213      0.38878     29.25494
     1.02204      0.39886     29.33360      0.23467     24.56850      0.39886     29.33360
     1.04208      0.40909     29.41428      0.24029     24.61596      0.40909     29.41428
     1.06212      0.41948     29.49703      0.24599     24.66458      0.41948     29.49703
     1.08216      0.43005     29.58186      0.25175     24.71433      0.43005     29.58186
     1.10220      0.44079     29.66882      0.25758     24.76525      0.44079     29.66882
     1.12224      0.45171     29.75794      0.26348     24.81734      0.45171     29.75794
     1.14228      0.46282     29.84925      0.26946     24.87061      0.46282     29.84925
     1.16232      0.47412     29.94280      0.27552     24.92509      0.47412     29.94280
     1.18236      0.48562     30.03863      0.28166     24.98077      0.48562     30.03863
     1.20240      0.49733     30.13676      0.28788     25.03771      0.49733     30.13676
     1.22244      0.50925     30.23726      0.29419     25.09589      0.50925     30.23726
     1.24248      0.52139     30.34015      0.30058     25.15533      0.52139     30.34015
     1.26252      0.53377     30.44548      0.30706     25.21606      0.53377     30.44548
     1.28257      0.54638     30.55331      0.31364     25.27810      0.54638     30.55331
     1.30261      0.55924     30.66367      0.32031     25.34146      0.55924     30.66367
     1.32265      0.57235     30.77662      0.32708     25.40615      0.57235     30.77662
     1.34269      0.58572     30.89221      0.33395     25.47222      0.58572     30.89221
     1.36273      0.59937     31.01049      0.34092     25.53965      0.59937     31.01049
     1.38277      0.61330     31.13152      0.34801     25.60851      0.61330     31.13152
     1.40281      0.62752     31.25534      0.35520     25.67879      0.62752     31.25534
     1.42285      0.64205     31.38204      0.36251     25.75050      0.64205     31.38204
     1.44289      0.65688     31.51165      0.36993     25.82369      0.65688     31.51165
     1.46293      0.67205     31.64426      0.37747     25.89837      0.67205     31.64426
     1.48297      0.68755     31.77991      0.38515     25.97458      0.68755     31.77991
     1.50301      0.70339     31.91869      0.39294     26.05233      0.70339     31.91869
     1.52305      0.71960     32.06065      0.40087     26.13164      0.71960     32.06065
     1.54309      0.73619     32.20588      0.40894     26.21254      0.73619     32.20588
     1.56313      0.75316     32.35445      0.41715     26.29508      0.75316     32.35445
     1.58317      0.77054     32.50643      0.42550     26.37928      0.77054     32.50643
     1.60321      0.78833     32.66191      0.43400     26.46514      0.78833     32.66191
     1.62325      0.80656     32.82097      0.44266     26.55272      0.80656     32.82097
     1.64329      0.82524     32.98371      0.45147     26.64203      0.82524     32.98371
     1.66333      0.84439     33.15020      0.46045     26.73314      0.84439     33.15020
     1.68337      0.86402     33.32055      0.46960     26.82604      0.86402     33.32055
     1.70341      0.88416     33.49485      0.47892     26.92078      0.88416     33.49485
     1.72345      0.90482     33.67321      0.48842     27.01740      0.90482     33.67321
     1.74349      0.92603     33.85572      0.49811     27.11594      0.92603     33.85572
     1.76353      0.94781     34.04251      0.50799     27.21642      0.94781     34.04251
     1.78357      0.97017     34.23367      0.51807     27.31889      0.97017     34.23367
     1.80361      0.99315     34.42935      0.52835     27.42340      0.99315     34.42935
     1.82365      1.01677     34.62964      0.53884     27.52997      1.01677     34.62964
     1.84369      1.04105     34.83469      0.54955     27.63865      1.04105     34.83469
     1.86373      1.06603     35.04463      0.56048     27.74948      1.06603     35.04463
     1.88377      1.09173     35.25960      0.57165     27.86253      1.09173     35.25960
     1.90381      1.11818     35.47974      0.58305     27.97783      1.11818     35.47974
     1.92385      1.14541     35.70520      0.59471     28.09541      1.14541     35.70520
     1.94389      1.17347     35.93614      0.60662     28.21536      1.17347     35.93614
     1.96393      1.20238     36.17273      0.61879     28.33768      1.20238     36.17273
     1.98397      1.23218     36.41514      0.63124     28.46246      1.23218     36.41514
     2.00401      1.26291     36.66354      0.64398     28.58974      1.26291     36.66354
     2.02405      1.29461     36.91813      0.65701     28.71961      1.29461     36.91813
     2.04409      1.32733     37.17909      0.67034     28.85208      1.32733     37.17909
     2.06413      1.36112     37.44664      0.68399     28.98723      1.36112     37.44664
     2.08417      1.39601     37.72098      0.69797     29.12517      1.39601     37.72098
     2.10421      1.43208     38.00235      0.71228     29.26589      1.43208     38.00235
     2.12425      1.46936     38.29096      0.72695     29.40950      1.46936     38.29096
     2.14429      1.50793     38.58708      0.74197     29.55606      1.50793     38.58708
     2.16433      1.54783     38.89095      0.75738     29.70565      1.54783     38.89095
     2.18437      1.58914     39.20284      0.77317     29.85834      1.58914     39.20284
     2.20441      1.63193     39.52304      0.78938     30.01421      1.63193     39.52304
     2.22445      1.67627     39.85184      0.80600     30.17336      1.67627     39.85184
     2.24449      1.72224     40.18955      0.82306     30.33583      1.72224     40.18955
     2.26453      1.76993     40.53650      0.84057     30.50175      1.76993     40.53650
     2.28457      1.81941     40.89302      0.85856     30.67120      1.81941     40.89302
     2.30461      1.87080     41.25949      0.87704     30.84426      1.87080     41.25949
     2.32465      1.92418     41.63628      0.89602     31.02103      1.92418     41.63628
     2.34469      1.97968     42.02380      0.91554     31.20164      1.97968     42.02380
     2.36473      2.03740     42.42244      0.93561     31.38617      2.03740     42.42244
     2.38477      2.09747     42.83268      0.95626     31.57475      2.09747     42.83268
     2.40481      2.16001     43.25497      0.97750     31.76750      2.16001     43.25497
     2.42485      2.22518     43.68980      0.99937     31.96449      2.22518     43.68980
     2.44489      2.29313     44.13771      1.02189     32.16591      2.29313     44.13771
     2.46493      2.36402     44.59924      1.04508     32.37186      2.36402     44.59924
     2.48497      2.43802     45.07497      1.06899     32.58245      2.43802     45.07497
     2.50501      2.51532     45.56554      1.09363     32.79787      2.51532     45.56554
     2.52505      2.59613     46.07159      1.11905     33.01826      2.59613     46.07159
     2.54509      2.68067     46.59383      1.14527     33.24376      2.68067     46.59383
     2.56513      2.76917     47.13298      1.17233     33.47453      2.76917     47.13298
     2.58517      2.86189     47.68983      1.20027     33.71076      2.86189     47.68983
     2.60521      2.95911     48.26523      1.22914     33.95258      2.95911     48.26523
     2.62525      3.06113     48.86006      1.25897     34.20024      3.06113     48.86006
     2.64529      3.16827     49.47527      1.28982     34.45387      3.16827     49.47527
     2.66533      3.28088     50.11187      1.32173     34.71371      3.28088     50.11187
     2.68537      3.39936     50.77094      1.35474     34.97997      3.39936     50.77094
     2.70541      3.52411     51.45363      1.38893     35.25287      3.52411     51.45363
     2.72545      3.65560     52.16119      1.42434     35.53263      3.65560     52.16119
     2.74549      3.79433     52.89494      1.46104     35.81952      3.79433     52.89494
     2.76553      3.94084     53.65628      1.49910     36.11377      3.94084     53.65628
     2.78557      4.09574     54.44675      1.53858     36.41568      4.09574     54.44675
     2.80561      4.25967     55.26800      1.57956     36.72551      4.25967     55.26800
     2.82565      4.43337     56.12177      1.62213     37.04359      4.43337     56.12177
     2.84569      4.61763     57.00997      1.66636     37.37020      4.61763     57.00997
     2.86573      4.81333     57.93466      1.71236     37.70570      4.81333     57.93466
     2.88577      5.02145     58.89804      1.76021     38.05040      5.02145     58.89804
     2.90581      5.24306     59.90252      1.81004     38.40471      5.24306     59.90252
     2.92585      5.47937     60.95073      1.86194     38.76902      5.47937     60.95073
     2.94589      5.73172     62.04546      1.91605     39.14375      5.73172     62.04546
     2.96593      6.00159     63.18980      1.97249     39.52929      6.00159     63.18980
     2.98597      6.29065     64.38708      2.03141     39.92619      6.29065     64.38708
     3.00601      6.60078     65.64100      2.09297     40.33485      6.60078     65.64100
     3.02605      6.93408     66.95550      2.15732     40.75585      6.93408     66.95550
     3.04609      7.29293     68.33497      2.22465     41.18972      7.29293     68.33497
     3.06613      7.68002     69.78423      2.29515     41.63705      7.68002     69.78423
     3.08617      8.09839     71.30853      2.36904     42.09848      8.09839     71.30853
     3.10621      8.55152     72.91367      2.44654     42.57464      8.55152     72.91367
     3.12625      9.04337     74.60610      2.52790     43.06630      9.04337     74.60610
     3.14629      9.57850     76.39290      2.61340     43.57422      9.57850     76.39290
     3.16633     10.16212     78.28193      2.70333     44.09914     10.16212     78.28193
     3.18637     10.80029     80.28193      2.79802     44.64202     10.80029     80.28193
     3.20641     11.50001     82.40261      2.89783     45.20370     11.50001     82.40261
     3.22645     12.26946     84.65485      3.00315     45.78526     12.26946     84.65485
     3.24649     13.11818     87.05077      3.11440     46.38775     13.11818     87.05077
     3.26653     14.05745     89.60400      3.23207     47.01231     14.05745     89.60400
     3.28657     15.10055     92.32981      3.35669     47.66019     15.10055     92.32981
     3.30661     16.26332     95.24542      3.48883     48.33274     16.26332     95.24542
     3.32665     17.56463     98.37018      3.62914     49.03142     17.56463     98.37018
      3.3467      19.0273     101.7260       3.7783      49.7578      19.0273     101.7260
      3.3667      20.6789     105.3377       3.9372      50.5136      20.6789     105.3377
      3.3868      22.5532     109.2332       4.1068      51.3006      22.5532     109.2332
      3.4068      24.6914     113.4439       4.2879      52.1209      24.6914     113.4439
      3.4269      27.1448     118.0054       4.4818      52.9766      27.1448     118.0054
      3.4469      29.9776     122.9573       4.6897      53.8702      29.9776     122.9573
      3.4669      33.2702     128.3434       4.9131      54.8044      33.2702     128.3434
      3.4870      37.1254     134.2112       5.1538      55.7819      37.1254     134.2112
      3.5070      41.6744     140.6107       5.4136      56.8059      41.6744     140.6107
      3.5271      47.0874     147.5910       5.6946      57.8800      47.0874     147.5910
      3.5471      53.5860     155.1944       5.9996      59.0079      53.5860     155.1944
      3.5671      61.4607     163.4444       6.3313      60.1939      61.4607     163.4444
      3.5872      71.0932     172.3243       6.6934      61.4427      71.0932     172.3243
      3.6072      82.9823     181.7370       7.0898      62.7597      82.9823     181.7370
      3.6273      97.7679     191.4359       7.5253      64.1505      97.7677     191.4359
      3.6473     116.2338     200.9076       8.0057      65.6215     116.2334     200.9075
      3.6673     139.2459     209.1933       8.5378      67.1802     139.2451     209.1935
      3.6874     167.5292     214.6695       9.1300      68.8343     167.5277     214.6706
      3.7074     201.1732     214.9356       9.7923      70.5929     201.1715     214.9394
      3.7275     238.9113     207.1735      10.5372      72.4656     238.9133     207.1823
      3.7475     277.8068     189.3019      11.3803      74.4631     277.8228     189.3130
      3.7675     314.3592     161.1338      12.3409      76.5969     314.3979     161.1249
      3.7876     346.2286     123.5470      13.4437      78.8788     346.2601     123.4800
      3.8076     371.3954      76.3736      14.7202      81.3203     371.3318      76.2643
      3.8277     385.2388      19.5309      16.2107      83.9310     385.0445      19.5249
      3.8477     381.4507     -42.5487      17.9673      86.7157     381.3091     -42.3242
