#                                                           
#                                                           
# Y88b    /   e           e    e      888~~\    ,88~-_      
#  Y88b  /   d8b         d8b  d8b     888   |  d888   \     
#   Y88b/   /Y88b       d888bdY88b    888 _/  88888    |    
#    Y8Y   /  Y88b     / Y88Y Y888b   888  \  88888    |    
#     Y   /____Y88b   /   YY   Y888b  888   |  Y888   /     
#    /   /      Y88b /          Y888b 888__/    `88_-~      
#                                                           
#                                                           
#       Version 4.2.0 Revision 14456 Hash cc1a9b3           
#                  MPI+SLK+OpenMP Build                     
#               http://www.yambo-code.org                   
#
# Absorption @ Q(1) [q->0 direction] :0.1000E-4  0.000     0.000   
#
#
# - Energies      are Teter 93(XC)
# - Wavefunctions are Teter 93(XC)
#
# - The Green`s function is Retarded -
# - Using the Length Gauge -
# - [r,Vnl] *is* included -
#
#   BSK|Identifier              :5728
#      |Dimension               :9
#      |Bands                   :1 - 10
#      |Exchange           [res]: yes
#      |Correlation        [res]: no
#      |Kernel`s coupling       : yes
#      |Exchange           [cpl]: yes
#      |Correlation        [cpl]: no
#      |W interaction is bare   : no
#      |ALDA kernel in R-space  : yes
#      |RL vectors    [exchange]:39127
#      |E/h energy range    [ev]:-1.000000 - -1.000000
#      |Coupling range     [o/o]: 100.0000 -  100.0000
#
#    E/ev[1]      EPS-Im[2]    EPS-Re[3]    EPSo-Im[4]   EPSo-Re[5]
#
    0.00        0.172E-10     1.01         0.00         1.02    
   0.2002E-1    0.3514E-6     1.010       0.1004E-5     1.016   
   0.4004E-1    0.7028E-6     1.010       0.2008E-5     1.016   
   0.6006E-1    0.1054E-5     1.010       0.3012E-5     1.016   
   0.8008E-1    0.1406E-5     1.010       0.4016E-5     1.016   
   0.1001       0.1757E-5     1.010       0.5021E-5     1.016   
   0.1201       0.2109E-5     1.010       0.6026E-5     1.016   
   0.1401       0.2461E-5     1.010       0.7032E-5     1.016   
   0.1602       0.2812E-5     1.010       0.8038E-5     1.016   
   0.1802       0.3164E-5     1.010       0.9044E-5     1.016   
   0.2002       0.3516E-5     1.010       0.1005E-4     1.016   
   0.2202       0.3869E-5     1.010       0.1106E-4     1.016   
   0.2402       0.4221E-5     1.010       0.1207E-4     1.016   
   0.2603       0.4574E-5     1.010       0.1308E-4     1.016   
   0.2803       0.4926E-5     1.010       0.1409E-4     1.016   
   0.3003       0.5279E-5     1.010       0.1510E-4     1.016   
   0.3203       0.5633E-5     1.010       0.1611E-4     1.016   
   0.3403       0.5986E-5     1.010       0.1713E-4     1.016   
   0.3604       0.6340E-5     1.010       0.1814E-4     1.016   
   0.3804       0.6694E-5     1.010       0.1916E-4     1.016   
   0.4004       0.7049E-5     1.010       0.2018E-4     1.016   
   0.4204       0.7403E-5     1.010       0.2120E-4     1.016   
   0.4404       0.7758E-5     1.010       0.2222E-4     1.016   
   0.4605       0.8114E-5     1.010       0.2324E-4     1.016   
   0.4805       0.8469E-5     1.010       0.2427E-4     1.016   
   0.5005       0.8825E-5     1.010       0.2529E-4     1.016   
   0.5205       0.9182E-5     1.010       0.2632E-4     1.016   
   0.5405       0.9539E-5     1.010       0.2735E-4     1.016   
   0.5606       0.9896E-5     1.010       0.2839E-4     1.016   
   0.5806       0.1025E-4     1.010       0.2942E-4     1.016   
   0.6006       0.1061E-4     1.010       0.3046E-4     1.016   
   0.6206       0.1097E-4     1.010       0.3150E-4     1.016   
   0.6406       0.1133E-4     1.010       0.3254E-4     1.016   
   0.6607       0.1169E-4     1.010       0.3358E-4     1.016   
   0.6807       0.1205E-4     1.010       0.3463E-4     1.016   
   0.7007       0.1241E-4     1.010       0.3568E-4     1.016   
   0.7207       0.1277E-4     1.010       0.3673E-4     1.016   
   0.7407       0.1313E-4     1.010       0.3778E-4     1.016   
   0.7608       0.1350E-4     1.010       0.3884E-4     1.016   
   0.7808       0.1386E-4     1.010       0.3990E-4     1.016   
   0.8008       0.1422E-4     1.010       0.4097E-4     1.016   
   0.8208       0.1459E-4     1.010       0.4203E-4     1.016   
   0.8408       0.1495E-4     1.010       0.4310E-4     1.016   
   0.8609       0.1532E-4     1.010       0.4418E-4     1.016   
   0.8809       0.1569E-4     1.010       0.4525E-4     1.016   
   0.9009       0.1605E-4     1.010       0.4633E-4     1.016   
   0.9209       0.1642E-4     1.010       0.4742E-4     1.016   
   0.9409       0.1679E-4     1.010       0.4851E-4     1.016   
   0.9610       0.1716E-4     1.010       0.4960E-4     1.016   
   0.9810       0.1753E-4     1.010       0.5069E-4     1.016   
    1.001       0.1790E-4     1.010       0.5179E-4     1.016   
    1.021       0.1827E-4     1.010       0.5289E-4     1.016   
    1.041       0.1865E-4     1.010       0.5400E-4     1.016   
    1.061       0.1902E-4     1.010       0.5511E-4     1.017   
    1.081       0.1939E-4     1.010       0.5623E-4     1.017   
    1.101       0.1977E-4     1.010       0.5735E-4     1.017   
    1.121       0.2015E-4     1.010       0.5847E-4     1.017   
    1.141       0.2052E-4     1.010       0.5960E-4     1.017   
    1.161       0.2090E-4     1.010       0.6074E-4     1.017   
    1.181       0.2128E-4     1.010       0.6188E-4     1.017   
    1.201       0.2166E-4     1.010       0.6302E-4     1.017   
    1.221       0.2204E-4     1.010       0.6417E-4     1.017   
    1.241       0.2242E-4     1.010       0.6532E-4     1.017   
    1.261       0.2281E-4     1.010       0.6648E-4     1.017   
    1.281       0.2319E-4     1.010       0.6765E-4     1.017   
    1.301       0.2358E-4     1.010       0.6882E-4     1.017   
    1.321       0.2396E-4     1.010       0.6999E-4     1.017   
    1.341       0.2435E-4     1.010       0.7118E-4     1.017   
    1.361       0.2474E-4     1.010       0.7236E-4     1.017   
    1.381       0.2513E-4     1.010       0.7356E-4     1.017   
    1.401       0.2552E-4     1.010       0.7476E-4     1.017   
    1.421       0.2591E-4     1.010       0.7596E-4     1.017   
    1.441       0.2631E-4     1.010       0.7717E-4     1.017   
    1.461       0.2670E-4     1.010       0.7839E-4     1.017   
    1.481       0.2710E-4     1.010       0.7961E-4     1.017   
    1.502       0.2750E-4     1.010       0.8084E-4     1.017   
    1.522       0.2790E-4     1.010       0.8208E-4     1.017   
    1.542       0.2830E-4     1.010       0.8333E-4     1.017   
    1.562       0.2870E-4     1.010       0.8458E-4     1.017   
    1.582       0.2910E-4     1.010       0.8583E-4     1.017   
    1.602       0.2950E-4     1.010       0.8710E-4     1.017   
    1.622       0.2991E-4     1.010       0.8837E-4     1.017   
    1.642       0.3032E-4     1.010       0.8965E-4     1.017   
    1.662       0.3073E-4     1.010       0.9094E-4     1.017   
    1.682       0.3114E-4     1.010       0.9224E-4     1.017   
    1.702       0.3155E-4     1.010       0.9354E-4     1.017   
    1.722       0.3196E-4     1.010       0.9485E-4     1.017   
    1.742       0.3237E-4     1.010       0.9617E-4     1.017   
    1.762       0.3279E-4     1.010       0.9750E-4     1.017   
    1.782       0.3321E-4     1.010       0.9883E-4     1.017   
    1.802       0.3363E-4     1.010       0.1002E-3     1.017   
    1.822       0.3405E-4     1.010       0.1015E-3     1.017   
    1.842       0.3447E-4     1.010       0.1029E-3     1.017   
    1.862       0.3490E-4     1.010       0.1043E-3     1.017   
    1.882       0.3532E-4     1.010       0.1056E-3     1.017   
    1.902       0.3575E-4     1.010       0.1070E-3     1.017   
    1.922       0.3618E-4     1.010       0.1084E-3     1.017   
    1.942       0.3661E-4     1.010       0.1098E-3     1.017   
    1.962       0.3705E-4     1.010       0.1113E-3     1.017   
    1.982       0.3748E-4     1.010       0.1127E-3     1.017   
    2.002       0.3792E-4     1.010       0.1141E-3     1.017   
    2.022       0.3836E-4     1.010       0.1156E-3     1.017   
    2.042       0.3880E-4     1.010       0.1170E-3     1.017   
    2.062       0.3924E-4     1.010       0.1185E-3     1.017   
    2.082       0.3969E-4     1.010       0.1200E-3     1.017   
    2.102       0.4013E-4     1.010       0.1215E-3     1.017   
    2.122       0.4058E-4     1.010       0.1230E-3     1.017   
    2.142       0.4103E-4     1.010       0.1245E-3     1.017   
    2.162       0.4149E-4     1.010       0.1260E-3     1.017   
    2.182       0.4194E-4     1.010       0.1276E-3     1.018   
    2.202       0.4240E-4     1.010       0.1291E-3     1.018   
    2.222       0.4286E-4     1.010       0.1307E-3     1.018   
    2.242       0.4332E-4     1.010       0.1322E-3     1.018   
    2.262       0.4378E-4     1.010       0.1338E-3     1.018   
    2.282       0.4425E-4     1.010       0.1354E-3     1.018   
    2.302       0.4472E-4     1.010       0.1370E-3     1.018   
    2.322       0.4519E-4     1.010       0.1387E-3     1.018   
    2.342       0.4566E-4     1.010       0.1403E-3     1.018   
    2.362       0.4614E-4     1.010       0.1420E-3     1.018   
    2.382       0.4662E-4     1.010       0.1436E-3     1.018   
    2.402       0.4710E-4     1.010       0.1453E-3     1.018   
    2.422       0.4758E-4     1.010       0.1470E-3     1.018   
    2.442       0.4807E-4     1.010       0.1487E-3     1.018   
    2.462       0.4856E-4     1.010       0.1504E-3     1.018   
    2.482       0.4905E-4     1.010       0.1522E-3     1.018   
    2.503       0.4954E-4     1.010       0.1539E-3     1.018   
    2.523       0.5004E-4     1.010       0.1557E-3     1.018   
    2.543       0.5054E-4     1.010       0.1575E-3     1.018   
    2.563       0.5104E-4     1.010       0.1593E-3     1.018   
    2.583       0.5154E-4     1.010       0.1611E-3     1.018   
    2.603       0.5205E-4     1.010       0.1629E-3     1.018   
    2.623       0.5256E-4     1.010       0.1648E-3     1.018   
    2.643       0.5307E-4     1.010       0.1666E-3     1.018   
    2.663       0.5359E-4     1.010       0.1685E-3     1.018   
    2.683       0.5411E-4     1.010       0.1704E-3     1.018   
    2.703       0.5463E-4     1.010       0.1723E-3     1.018   
    2.723       0.5515E-4     1.010       0.1743E-3     1.018   
    2.743       0.5568E-4     1.010       0.1762E-3     1.018   
    2.763       0.5621E-4     1.010       0.1782E-3     1.018   
    2.783       0.5675E-4     1.010       0.1802E-3     1.018   
    2.803       0.5728E-4     1.010       0.1822E-3     1.018   
    2.823       0.5782E-4     1.010       0.1843E-3     1.018   
    2.843       0.5837E-4     1.010       0.1863E-3     1.019   
    2.863       0.5891E-4     1.010       0.1884E-3     1.019   
    2.883       0.5946E-4     1.010       0.1905E-3     1.019   
    2.903       0.6002E-4     1.010       0.1926E-3     1.019   
    2.923       0.6058E-4     1.010       0.1947E-3     1.019   
    2.943       0.6114E-4     1.010       0.1969E-3     1.019   
    2.963       0.6170E-4     1.010       0.1991E-3     1.019   
    2.983       0.6227E-4     1.010       0.2013E-3     1.019   
    3.003       0.6284E-4     1.010       0.2035E-3     1.019   
    3.023       0.6341E-4     1.010       0.2058E-3     1.019   
    3.043       0.6399E-4     1.010       0.2080E-3     1.019   
    3.063       0.6458E-4     1.010       0.2103E-3     1.019   
    3.083       0.6516E-4     1.010       0.2127E-3     1.019   
    3.103       0.6575E-4     1.010       0.2150E-3     1.019   
    3.123       0.6635E-4     1.010       0.2174E-3     1.019   
    3.143       0.6695E-4     1.011       0.2198E-3     1.019   
    3.163       0.6755E-4     1.011       0.2222E-3     1.019   
    3.183       0.6815E-4     1.011       0.2247E-3     1.019   
    3.203       0.6876E-4     1.011       0.2271E-3     1.019   
    3.223       0.6938E-4     1.011       0.2296E-3     1.019   
    3.243       0.7000E-4     1.011       0.2322E-3     1.019   
    3.263       0.7062E-4     1.011       0.2347E-3     1.019   
    3.283       0.7125E-4     1.011       0.2373E-3     1.019   
    3.303       0.7188E-4     1.011       0.2400E-3     1.020   
    3.323       0.7252E-4     1.011       0.2426E-3     1.020   
    3.343       0.7316E-4     1.011       0.2453E-3     1.020   
    3.363       0.7380E-4     1.011       0.2480E-3     1.020   
    3.383       0.7445E-4     1.011       0.2508E-3     1.020   
    3.403       0.7511E-4     1.011       0.2535E-3     1.020   
    3.423       0.7576E-4     1.011       0.2564E-3     1.020   
    3.443       0.7643E-4     1.011       0.2592E-3     1.020   
    3.463       0.7710E-4     1.011       0.2621E-3     1.020   
    3.483       0.7777E-4     1.011       0.2650E-3     1.020   
    3.504       0.7845E-4     1.011       0.2680E-3     1.020   
    3.524       0.7913E-4     1.011       0.2710E-3     1.020   
    3.544       0.7982E-4     1.011       0.2740E-3     1.020   
    3.564       0.8052E-4     1.011       0.2770E-3     1.020   
    3.584       0.8122E-4     1.011       0.2801E-3     1.020   
    3.604       0.8192E-4     1.011       0.2833E-3     1.020   
    3.624       0.8263E-4     1.011       0.2865E-3     1.020   
    3.644       0.8335E-4     1.011       0.2897E-3     1.020   
    3.664       0.8407E-4     1.011       0.2930E-3     1.020   
    3.684       0.8479E-4     1.011       0.2963E-3     1.021   
    3.704       0.8553E-4     1.011       0.2996E-3     1.021   
    3.724       0.8627E-4     1.011       0.3030E-3     1.021   
    3.744       0.8701E-4     1.011       0.3064E-3     1.021   
    3.764       0.8776E-4     1.011       0.3099E-3     1.021   
    3.784       0.8852E-4     1.011       0.3135E-3     1.021   
    3.804       0.8928E-4     1.011       0.3170E-3     1.021   
    3.824       0.9005E-4     1.011       0.3207E-3     1.021   
    3.844       0.9082E-4     1.011       0.3243E-3     1.021   
    3.864       0.9160E-4     1.011       0.3280E-3     1.021   
    3.884       0.9239E-4     1.011       0.3318E-3     1.021   
    3.904       0.9318E-4     1.011       0.3356E-3     1.021   
    3.924       0.9398E-4     1.011       0.3395E-3     1.021   
    3.944       0.9479E-4     1.011       0.3435E-3     1.021   
    3.964       0.9560E-4     1.011       0.3475E-3     1.021   
    3.984       0.9642E-4     1.011       0.3515E-3     1.021   
    4.004       0.9725E-4     1.011       0.3556E-3     1.022   
    4.024       0.9808E-4     1.011       0.3598E-3     1.022   
    4.044       0.9893E-4     1.011       0.3640E-3     1.022   
    4.064       0.9977E-4     1.011       0.3683E-3     1.022   
    4.084       0.1006E-3     1.011       0.3726E-3     1.022   
    4.104       0.1015E-3     1.011       0.3770E-3     1.022   
    4.124       0.1024E-3     1.011       0.3815E-3     1.022   
    4.144       0.1032E-3     1.011       0.3860E-3     1.022   
    4.164       0.1041E-3     1.011       0.3906E-3     1.022   
    4.184       0.1050E-3     1.011       0.3953E-3     1.022   
    4.204       0.1059E-3     1.011       0.4001E-3     1.022   
    4.224       0.1068E-3     1.011       0.4049E-3     1.022   
    4.244       0.1078E-3     1.011       0.4098E-3     1.022   
    4.264       0.1087E-3     1.011       0.4148E-3     1.023   
    4.284       0.1096E-3     1.011       0.4198E-3     1.023   
    4.304       0.1106E-3     1.012       0.4249E-3     1.023   
    4.324       0.1115E-3     1.012       0.4301E-3     1.023   
    4.344       0.1125E-3     1.012       0.4354E-3     1.023   
    4.364       0.1134E-3     1.012       0.4408E-3     1.023   
    4.384       0.1144E-3     1.012       0.4463E-3     1.023   
    4.404       0.1154E-3     1.012       0.4518E-3     1.023   
    4.424       0.1164E-3     1.012       0.4574E-3     1.023   
    4.444       0.1174E-3     1.012       0.4632E-3     1.023   
    4.464       0.1184E-3     1.012       0.4690E-3     1.023   
    4.484       0.1195E-3     1.012       0.4749E-3     1.024   
    4.505       0.1205E-3     1.012       0.4809E-3     1.024   
    4.525       0.1215E-3     1.012       0.4870E-3     1.024   
    4.545       0.1226E-3     1.012       0.4933E-3     1.024   
    4.565       0.1237E-3     1.012       0.4996E-3     1.024   
    4.585       0.1247E-3     1.012       0.5060E-3     1.024   
    4.605       0.1258E-3     1.012       0.5126E-3     1.024   
    4.625       0.1269E-3     1.012       0.5192E-3     1.024   
    4.645       0.1280E-3     1.012       0.5260E-3     1.024   
    4.665       0.1292E-3     1.012       0.5329E-3     1.024   
    4.685       0.1303E-3     1.012       0.5399E-3     1.025   
    4.705       0.1314E-3     1.012       0.5470E-3     1.025   
    4.725       0.1326E-3     1.012       0.5543E-3     1.025   
    4.745       0.1338E-3     1.012       0.5617E-3     1.025   
    4.765       0.1349E-3     1.012       0.5692E-3     1.025   
    4.785       0.1361E-3     1.012       0.5769E-3     1.025   
    4.805       0.1373E-3     1.012       0.5847E-3     1.025   
    4.825       0.1386E-3     1.012       0.5926E-3     1.025   
    4.845       0.1398E-3     1.012       0.6007E-3     1.025   
    4.865       0.1410E-3     1.012       0.6090E-3     1.026   
    4.885       0.1423E-3     1.012       0.6174E-3     1.026   
    4.905       0.1435E-3     1.012       0.6260E-3     1.026   
    4.925       0.1448E-3     1.012       0.6347E-3     1.026   
    4.945       0.1461E-3     1.012       0.6436E-3     1.026   
    4.965       0.1474E-3     1.012       0.6527E-3     1.026   
    4.985       0.1488E-3     1.012       0.6619E-3     1.026   
    5.005       0.1501E-3     1.012       0.6713E-3     1.026   
    5.025       0.1514E-3     1.012       0.6809E-3     1.027   
    5.045       0.1528E-3     1.012       0.6907E-3     1.027   
    5.065       0.1542E-3     1.013       0.7007E-3     1.027   
    5.085       0.1556E-3     1.013       0.7110E-3     1.027   
    5.105       0.1570E-3     1.013       0.7214E-3     1.027   
    5.125       0.1584E-3     1.013       0.7320E-3     1.027   
    5.145       0.1599E-3     1.013       0.7428E-3     1.027   
    5.165       0.1613E-3     1.013       0.7539E-3     1.028   
    5.185       0.1628E-3     1.013       0.7652E-3     1.028   
    5.205       0.1643E-3     1.013       0.7768E-3     1.028   
    5.225       0.1658E-3     1.013       0.7885E-3     1.028   
    5.245       0.1674E-3     1.013       0.8006E-3     1.028   
    5.265       0.1689E-3     1.013       0.8129E-3     1.028   
    5.285       0.1705E-3     1.013       0.8254E-3     1.029   
    5.305       0.1721E-3     1.013       0.8383E-3     1.029   
    5.325       0.1737E-3     1.013       0.8514E-3     1.029   
    5.345       0.1753E-3     1.013       0.8648E-3     1.029   
    5.365       0.1769E-3     1.013       0.8786E-3     1.029   
    5.385       0.1786E-3     1.013       0.8926E-3     1.029   
    5.405       0.1803E-3     1.013       0.9070E-3     1.030   
    5.425       0.1820E-3     1.013       0.9216E-3     1.030   
    5.445       0.1837E-3     1.013       0.9367E-3     1.030   
    5.465       0.1854E-3     1.013       0.9520E-3     1.030   
    5.485       0.1872E-3     1.013       0.9678E-3     1.030   
    5.506       0.1890E-3     1.013       0.9839E-3     1.031   
    5.526       0.1908E-3     1.013       0.1000E-2     1.031   
    5.546       0.1926E-3     1.013       0.1017E-2     1.031   
    5.566       0.1945E-3     1.013       0.1035E-2     1.031   
    5.586       0.1963E-3     1.013       0.1052E-2     1.031   
    5.606       0.1982E-3     1.013       0.1070E-2     1.032   
    5.626       0.2002E-3     1.013       0.1089E-2     1.032   
