#                                                           
#  **    **    **     ****     ****  ******     *******     
# //**  **    ****   /**/**   **/** /*////**   **/////**    
#  //****    **//**  /**//** ** /** /*   /**  **     //**   
#   //**    **  //** /** //***  /** /******  /**      /**   
#    /**   **********/**  //*   /** /*//// **/**      /**   
#    /**  /**//////**/**   /    /** /*    /**//**     **    
#    /**  /**     /**/**        /** /*******  //*******     
#    //   //      // //         //  ///////    ///////      
#                                                           
#        Version 4.2.0 Revision 14456 Hash cc1a9b3          
#                  MPI+SLK+OpenMP Build                     
#                http://www.yambo-code.org                  
#
# Absorption @ Q(1) [q->0 direction] :0.1000E-4  0.000     0.000   
#
#
# - Energies      are Teter 93(XC)
# - Wavefunctions are Teter 93(XC)
#
# - The Green`s function is Retarded -
# - Using the Length Gauge -
# - [r,Vnl] *is* included -
#
#   BSK|Identifier              :6934
#      |Dimension               :9
#      |Bands                   :1 - 10
#      |Exchange           [res]: yes
#      |Correlation        [res]: no
#      |Kernel`s coupling       : yes
#      |Exchange           [cpl]: yes
#      |Correlation        [cpl]: no
#      |W interaction is bare   : no
#      |ALDA kernel in R-space  : no
#      |RL vectors    [exchange]:39127
#      |E/h energy range    [ev]:-1.000000 - -1.000000
#      |Coupling range     [o/o]: 100.0000 -  100.0000
#
#    E/ev[1]      EPS-Im[2]    EPS-Re[3]    EPSo-Im[4]   EPSo-Re[5]
#
    6.000       0.1256E-3     1.010       0.1545E-2     1.037   
    6.020       0.1267E-3     1.010       0.1577E-2     1.037   
    6.040       0.1278E-3     1.010       0.1610E-2     1.037   
    6.060       0.1289E-3     1.010       0.1643E-2     1.038   
    6.080       0.1300E-3     1.010       0.1678E-2     1.038   
    6.100       0.1312E-3     1.010       0.1714E-2     1.038   
    6.120       0.1323E-3     1.010       0.1751E-2     1.039   
    6.140       0.1335E-3     1.010       0.1790E-2     1.039   
    6.160       0.1346E-3     1.010       0.1829E-2     1.039   
    6.180       0.1358E-3     1.011       0.1870E-2     1.040   
    6.200       0.1370E-3     1.011       0.1912E-2     1.040   
    6.220       0.1383E-3     1.011       0.1956E-2     1.040   
    6.240       0.1395E-3     1.011       0.2001E-2     1.041   
    6.261       0.1407E-3     1.011       0.2047E-2     1.041   
    6.281       0.1420E-3     1.011       0.2095E-2     1.042   
    6.301       0.1433E-3     1.011       0.2145E-2     1.042   
    6.321       0.1446E-3     1.011       0.2197E-2     1.042   
    6.341       0.1459E-3     1.011       0.2250E-2     1.043   
    6.361       0.1472E-3     1.011       0.2306E-2     1.043   
    6.381       0.1486E-3     1.011       0.2363E-2     1.044   
    6.401       0.1499E-3     1.011       0.2423E-2     1.044   
    6.421       0.1513E-3     1.011       0.2485E-2     1.045   
    6.441       0.1527E-3     1.011       0.2549E-2     1.045   
    6.461       0.1541E-3     1.011       0.2615E-2     1.046   
    6.481       0.1555E-3     1.011       0.2685E-2     1.046   
    6.501       0.1570E-3     1.011       0.2757E-2     1.047   
    6.521       0.1585E-3     1.011       0.2832E-2     1.047   
    6.541       0.1600E-3     1.011       0.2910E-2     1.048   
    6.561       0.1615E-3     1.011       0.2991E-2     1.049   
    6.581       0.1630E-3     1.011       0.3076E-2     1.049   
    6.601       0.1646E-3     1.011       0.3164E-2     1.050   
    6.621       0.1661E-3     1.011       0.3256E-2     1.050   
    6.641       0.1677E-3     1.011       0.3352E-2     1.051   
    6.661       0.1693E-3     1.011       0.3452E-2     1.052   
    6.681       0.1710E-3     1.011       0.3557E-2     1.052   
    6.701       0.1726E-3     1.011       0.3667E-2     1.053   
    6.721       0.1743E-3     1.011       0.3782E-2     1.054   
    6.741       0.1760E-3     1.011       0.3902E-2     1.055   
    6.762       0.1778E-3     1.011       0.4028E-2     1.055   
    6.782       0.1795E-3     1.011       0.4160E-2     1.056   
    6.802       0.1813E-3     1.011       0.4299E-2     1.057   
    6.822       0.1831E-3     1.012       0.4444E-2     1.058   
    6.842       0.1850E-3     1.012       0.4597E-2     1.059   
    6.862       0.1868E-3     1.012       0.4758E-2     1.060   
    6.882       0.1887E-3     1.012       0.4928E-2     1.061   
    6.902       0.1907E-3     1.012       0.5107E-2     1.062   
    6.922       0.1926E-3     1.012       0.5295E-2     1.063   
    6.942       0.1946E-3     1.012       0.5494E-2     1.064   
    6.962       0.1966E-3     1.012       0.5705E-2     1.065   
    6.982       0.1986E-3     1.012       0.5928E-2     1.066   
    7.002       0.2007E-3     1.012       0.6163E-2     1.067   
    7.022       0.2028E-3     1.012       0.6414E-2     1.069   
    7.042       0.2050E-3     1.012       0.6679E-2     1.070   
    7.062       0.2071E-3     1.012       0.6962E-2     1.071   
    7.082       0.2094E-3     1.012       0.7262E-2     1.073   
    7.102       0.2116E-3     1.012       0.7582E-2     1.074   
    7.122       0.2139E-3     1.012       0.7924E-2     1.075   
    7.142       0.2162E-3     1.012       0.8289E-2     1.077   
    7.162       0.2186E-3     1.012       0.8680E-2     1.079   
    7.182       0.2210E-3     1.012       0.9099E-2     1.080   
    7.202       0.2234E-3     1.012       0.9548E-2     1.082   
    7.222       0.2259E-3     1.012       0.1003E-1     1.084   
    7.242       0.2284E-3     1.012       0.1055E-1     1.086   
    7.263       0.2310E-3     1.012       0.1112E-1     1.088   
    7.283       0.2336E-3     1.012       0.1172E-1     1.090   
    7.303       0.2363E-3     1.013       0.1238E-1     1.093   
    7.323       0.2390E-3     1.013       0.1310E-1     1.095   
    7.343       0.2417E-3     1.013       0.1388E-1     1.098   
    7.363       0.2445E-3     1.013       0.1473E-1     1.101   
    7.383       0.2474E-3     1.013       0.1566E-1     1.103   
    7.403       0.2503E-3     1.013       0.1668E-1     1.107   
    7.423       0.2533E-3     1.013       0.1780E-1     1.110   
    7.443       0.2563E-3     1.013       0.1904E-1     1.113   
    7.463       0.2594E-3     1.013       0.2040E-1     1.117   
    7.483       0.2625E-3     1.013       0.2193E-1     1.121   
    7.503       0.2657E-3     1.013       0.2362E-1     1.125   
    7.523       0.2690E-3     1.013       0.2552E-1     1.130   
    7.543       0.2723E-3     1.013       0.2765E-1     1.135   
    7.563       0.2757E-3     1.013       0.3005E-1     1.140   
    7.583       0.2792E-3     1.013       0.3277E-1     1.146   
    7.603       0.2827E-3     1.013       0.3588E-1     1.152   
    7.623       0.2863E-3     1.013       0.3943E-1     1.158   
    7.643       0.2900E-3     1.013       0.4353E-1     1.166   
    7.663       0.2938E-3     1.013       0.4829E-1     1.173   
    7.683       0.2976E-3     1.014       0.5384E-1     1.182   
    7.703       0.3015E-3     1.014       0.6037E-1     1.191   
    7.723       0.3055E-3     1.014       0.6810E-1     1.202   
    7.743       0.3096E-3     1.014       0.7736E-1     1.213   
    7.764       0.3138E-3     1.014       0.8852E-1     1.225   
    7.784       0.3181E-3     1.014       0.1021        1.238   
    7.804       0.3225E-3     1.014       0.1188        1.253   
    7.824       0.3270E-3     1.014       0.1396        1.268   
    7.844       0.3316E-3     1.014       0.1656        1.284   
    7.864       0.3363E-3     1.014       0.1984        1.300   
    7.884       0.3411E-3     1.014       0.2399        1.313   
    7.904       0.3461E-3     1.014       0.2923        1.322   
    7.924       0.3511E-3     1.014       0.3570        1.321   
    7.944       0.3563E-3     1.014       0.4335        1.301   
    7.964       0.3616E-3     1.014       0.5157        1.254   
    7.984       0.3671E-3     1.015       0.5890        1.172   
    8.004       0.3727E-3     1.015       0.6319        1.057   
    8.024       0.3784E-3     1.015       0.6275       0.9311   
    8.044       0.3843E-3     1.015       0.5777       0.8212   
    8.064       0.3904E-3     1.015       0.5014       0.7450   
    8.084       0.3966E-3     1.015       0.4194       0.7034   
    8.104       0.4030E-3     1.015       0.3448       0.6880   
    8.124       0.4096E-3     1.015       0.2823       0.6889   
    8.144       0.4164E-3     1.015       0.2320       0.6988   
    8.164       0.4234E-3     1.015       0.1921       0.7129   
    8.184       0.4306E-3     1.015       0.1606       0.7286   
    8.204       0.4380E-3     1.015       0.1356       0.7445   
    8.224       0.4456E-3     1.015       0.1157       0.7597   
    8.244       0.4535E-3     1.016       0.9955E-1    0.7739   
    8.265       0.4617E-3     1.016       0.8643E-1    0.7871   
    8.285       0.4701E-3     1.016       0.7564E-1    0.7992   
    8.305       0.4787E-3     1.016       0.6668E-1    0.8102   
    8.325       0.4877E-3     1.016       0.5918E-1    0.8203   
    8.345       0.4970E-3     1.016       0.5284E-1    0.8296   
    8.365       0.5066E-3     1.016       0.4744E-1    0.8380   
    8.385       0.5165E-3     1.016       0.4281E-1    0.8458   
    8.405       0.5269E-3     1.016       0.3882E-1    0.8529   
    8.425       0.5375E-3     1.016       0.3535E-1    0.8595   
    8.445       0.5486E-3     1.017       0.3232E-1    0.8655   
    8.465       0.5602E-3     1.017       0.2966E-1    0.8711   
    8.485       0.5721E-3     1.017       0.2731E-1    0.8763   
    8.505       0.5846E-3     1.017       0.2523E-1    0.8811   
    8.525       0.5976E-3     1.017       0.2337E-1    0.8856   
    8.545       0.6111E-3     1.017       0.2171E-1    0.8898   
    8.565       0.6252E-3     1.017       0.2022E-1    0.8938   
    8.585       0.6399E-3     1.017       0.1888E-1    0.8974   
    8.605       0.6553E-3     1.018       0.1767E-1    0.9009   
    8.625       0.6713E-3     1.018       0.1657E-1    0.9041   
    8.645       0.6881E-3     1.018       0.1557E-1    0.9072   
    8.665       0.7058E-3     1.018       0.1466E-1    0.9101   
    8.685       0.7243E-3     1.018       0.1383E-1    0.9128   
    8.705       0.7437E-3     1.018       0.1306E-1    0.9154   
    8.725       0.7641E-3     1.018       0.1236E-1    0.9178   
    8.745       0.7856E-3     1.019       0.1172E-1    0.9201   
    8.766       0.8083E-3     1.019       0.1112E-1    0.9223   
    8.786       0.8323E-3     1.019       0.1057E-1    0.9244   
    8.806       0.8576E-3     1.019       0.1006E-1    0.9265   
    8.826       0.8844E-3     1.019       0.9592E-2    0.9284   
    8.846       0.9128E-3     1.019       0.9154E-2    0.9302   
    8.866       0.9430E-3     1.020       0.8746E-2    0.9319   
    8.886       0.9752E-3     1.020       0.8367E-2    0.9336   
    8.906       0.1009E-2     1.020       0.8013E-2    0.9352   
    8.926       0.1046E-2     1.020       0.7682E-2    0.9367   
    8.946       0.1085E-2     1.020       0.7373E-2    0.9382   
    8.966       0.1127E-2     1.021       0.7084E-2    0.9396   
    8.986       0.1172E-2     1.021       0.6813E-2    0.9410   
    9.006       0.1221E-2     1.021       0.6560E-2    0.9423   
    9.026       0.1273E-2     1.021       0.6322E-2    0.9436   
    9.046       0.1330E-2     1.021       0.6099E-2    0.9448   
    9.066       0.1392E-2     1.022       0.5889E-2    0.9460   
    9.086       0.1459E-2     1.022       0.5693E-2    0.9471   
    9.106       0.1532E-2     1.022       0.5508E-2    0.9482   
    9.126       0.1612E-2     1.023       0.5335E-2    0.9493   
    9.146       0.1700E-2     1.023       0.5173E-2    0.9503   
    9.166       0.1797E-2     1.023       0.5020E-2    0.9513   
    9.186       0.1904E-2     1.024       0.4878E-2    0.9523   
    9.206       0.2024E-2     1.024       0.4745E-2    0.9532   
    9.226       0.2157E-2     1.024       0.4620E-2    0.9542   
    9.246       0.2306E-2     1.025       0.4505E-2    0.9551   
    9.267       0.2474E-2     1.025       0.4398E-2    0.9559   
    9.287       0.2665E-2     1.026       0.4299E-2    0.9568   
    9.307       0.2882E-2     1.026       0.4208E-2    0.9576   
    9.327       0.3130E-2     1.027       0.4126E-2    0.9584   
    9.347       0.3416E-2     1.027       0.4052E-2    0.9593   
    9.367       0.3749E-2     1.028       0.3986E-2    0.9600   
    9.387       0.4138E-2     1.029       0.3929E-2    0.9608   
    9.407       0.4596E-2     1.029       0.3882E-2    0.9616   
    9.427       0.5141E-2     1.030       0.3844E-2    0.9623   
    9.447       0.5794E-2     1.031       0.3817E-2    0.9631   
    9.467       0.6586E-2     1.032       0.3801E-2    0.9638   
    9.487       0.7554E-2     1.033       0.3797E-2    0.9646   
    9.507       0.8751E-2     1.034       0.3808E-2    0.9653   
    9.527       0.1024E-1     1.035       0.3835E-2    0.9660   
    9.547       0.1212E-1     1.036       0.3881E-2    0.9668   
    9.567       0.1449E-1     1.037       0.3949E-2    0.9675   
    9.587       0.1749E-1     1.038       0.4042E-2    0.9683   
    9.607       0.2122E-1     1.038       0.4167E-2    0.9690   
    9.627       0.2572E-1     1.038       0.4331E-2    0.9698   
    9.647       0.3074E-1     1.036       0.4542E-2    0.9706   
    9.667       0.3558E-1     1.031       0.4812E-2    0.9714   
    9.687       0.3901E-1     1.025       0.5158E-2    0.9722   
    9.707       0.3978E-1     1.017       0.5600E-2    0.9730   
    9.727       0.3758E-1     1.010       0.6167E-2    0.9739   
    9.747       0.3328E-1     1.005       0.6896E-2    0.9747   
    9.768       0.2825E-1     1.002       0.7832E-2    0.9755   
    9.788       0.2347E-1     1.001       0.9030E-2    0.9762   
     9.80762      0.01937      1.00063      0.01054      0.97671
     9.82766      0.01605      1.00126      0.01238      0.97683
     9.84770      0.01341      1.00223      0.01447      0.97632
     9.86774      0.01133      1.00334      0.01653      0.97495
    9.888       0.9685E-2     1.004       0.1805E-1    0.9726   
    9.908       0.8378E-2     1.006       0.1849E-1    0.9697   
    9.928       0.7331E-2     1.007       0.1764E-1    0.9669   
    9.948       0.6484E-2     1.008       0.1583E-1    0.9648   
    9.968       0.5794E-2     1.009       0.1365E-1    0.9636   
    9.988       0.5226E-2     1.010       0.1154E-1    0.9633   
    10.01       0.4755E-2     1.010       0.9709E-2    0.9634   
    10.03       0.4362E-2     1.011       0.8211E-2    0.9639   
    10.05       0.4032E-2     1.012       0.7013E-2    0.9646   
    10.07       0.3753E-2     1.013       0.6061E-2    0.9653   
    10.09       0.3516E-2     1.013       0.5303E-2    0.9660   
    10.11       0.3315E-2     1.014       0.4693E-2    0.9667   
    10.13       0.3142E-2     1.014       0.4199E-2    0.9673   
    10.15       0.2995E-2     1.015       0.3794E-2    0.9680   
    10.17       0.2868E-2     1.016       0.3459E-2    0.9686   
    10.19       0.2760E-2     1.016       0.3177E-2    0.9691   
    10.21       0.2667E-2     1.017       0.2939E-2    0.9697   
    10.23       0.2587E-2     1.017       0.2736E-2    0.9702   
    10.25       0.2520E-2     1.018       0.2560E-2    0.9707   
    10.27       0.2463E-2     1.018       0.2407E-2    0.9711   
    10.29       0.2415E-2     1.019       0.2273E-2    0.9716   
    10.31       0.2375E-2     1.019       0.2154E-2    0.9720   
    10.33       0.2343E-2     1.020       0.2049E-2    0.9724   
    10.35       0.2318E-2     1.020       0.1954E-2    0.9728   
    10.37       0.2299E-2     1.020       0.1869E-2    0.9731   
    10.39       0.2286E-2     1.021       0.1792E-2    0.9735   
    10.41       0.2278E-2     1.021       0.1722E-2    0.9738   
    10.43       0.2274E-2     1.022       0.1658E-2    0.9742   
    10.45       0.2276E-2     1.022       0.1599E-2    0.9745   
    10.47       0.2282E-2     1.023       0.1544E-2    0.9748   
    10.49       0.2292E-2     1.023       0.1494E-2    0.9751   
    10.51       0.2305E-2     1.024       0.1447E-2    0.9754   
    10.53       0.2323E-2     1.024       0.1403E-2    0.9757   
    10.55       0.2345E-2     1.025       0.1363E-2    0.9759   
    10.57       0.2370E-2     1.025       0.1324E-2    0.9762   
    10.59       0.2399E-2     1.025       0.1288E-2    0.9765   
    10.61       0.2432E-2     1.026       0.1254E-2    0.9767   
    10.63       0.2468E-2     1.026       0.1222E-2    0.9770   
    10.65       0.2508E-2     1.027       0.1192E-2    0.9772   
    10.67       0.2551E-2     1.027       0.1163E-2    0.9774   
    10.69       0.2599E-2     1.028       0.1136E-2    0.9777   
    10.71       0.2650E-2     1.028       0.1110E-2    0.9779   
    10.73       0.2705E-2     1.029       0.1085E-2    0.9781   
    10.75       0.2764E-2     1.029       0.1061E-2    0.9783   
    10.77       0.2827E-2     1.030       0.1039E-2    0.9785   
    10.79       0.2895E-2     1.031       0.1017E-2    0.9787   
    10.81       0.2967E-2     1.031       0.9959E-3    0.9789   
    10.83       0.3045E-2     1.032       0.9759E-3    0.9791   
    10.85       0.3127E-2     1.032       0.9566E-3    0.9793   
    10.87       0.3214E-2     1.033       0.9381E-3    0.9795   
    10.89       0.3307E-2     1.034       0.9202E-3    0.9797   
    10.91       0.3406E-2     1.034       0.9030E-3    0.9799   
    10.93       0.3511E-2     1.035       0.8864E-3    0.9800   
    10.95       0.3623E-2     1.036       0.8703E-3    0.9802   
    10.97       0.3742E-2     1.036       0.8548E-3    0.9804   
    10.99       0.3868E-2     1.037       0.8398E-3    0.9806   
    11.01       0.4003E-2     1.038       0.8253E-3    0.9807   
    11.03       0.4146E-2     1.039       0.8112E-3    0.9809   
    11.05       0.4299E-2     1.040       0.7975E-3    0.9810   
    11.07       0.4462E-2     1.040       0.7843E-3    0.9812   
    11.09       0.4636E-2     1.041       0.7714E-3    0.9814   
    11.11       0.4821E-2     1.042       0.7590E-3    0.9815   
    11.13       0.5019E-2     1.043       0.7468E-3    0.9817   
    11.15       0.5232E-2     1.044       0.7350E-3    0.9818   
    11.17       0.5459E-2     1.045       0.7236E-3    0.9820   
    11.19       0.5703E-2     1.046       0.7124E-3    0.9821   
    11.21       0.5965E-2     1.048       0.7015E-3    0.9822   
    11.23       0.6247E-2     1.049       0.6909E-3    0.9824   
    11.25       0.6551E-2     1.050       0.6806E-3    0.9825   
    11.27       0.6878E-2     1.051       0.6706E-3    0.9827   
    11.29       0.7232E-2     1.053       0.6608E-3    0.9828   
    11.31       0.7616E-2     1.054       0.6512E-3    0.9829   
    11.33       0.8032E-2     1.056       0.6419E-3    0.9830   
    11.35       0.8484E-2     1.057       0.6327E-3    0.9832   
    11.37       0.8976E-2     1.059       0.6238E-3    0.9833   
    11.39       0.9514E-2     1.061       0.6151E-3    0.9834   
    11.41       0.1010E-1     1.062       0.6066E-3    0.9835   
    11.43       0.1075E-1     1.064       0.5983E-3    0.9837   
    11.45       0.1146E-1     1.067       0.5902E-3    0.9838   
    11.47       0.1225E-1     1.069       0.5823E-3    0.9839   
    11.49       0.1311E-1     1.071       0.5745E-3    0.9840   
    11.51       0.1408E-1     1.074       0.5669E-3    0.9841   
    11.53       0.1516E-1     1.076       0.5595E-3    0.9842   
    11.55       0.1636E-1     1.079       0.5522E-3    0.9844   
    11.57       0.1772E-1     1.082       0.5451E-3    0.9845   
    11.59       0.1924E-1     1.086       0.5381E-3    0.9846   
    11.61       0.2098E-1     1.089       0.5312E-3    0.9847   
    11.63       0.2295E-1     1.093       0.5245E-3    0.9848   
