#                                                                     
#  ____  ____     _       ____    ____  ______      ___               
# |_  _||_  _|   / \     |_   \  /   _||_   _ \   ."   `.             
#   \ \  / /    / _ \      |   \/   |    | |_) | /  .-.  \            
#    \ \/ /    / ___ \     | |\  /| |    |  __". | |   | |            
#    _|  |_  _/ /   \ \_  _| |_\/_| |_  _| |__) |\  `-"  /            
#   |______||____| |____||_____||_____||_______/  `.___."             
#                                                                     
#                                                                     
#                                                                     
# Version 5.2.0 Revision 23455 Hash (prev commit) 4b9e8e27e8          
#                  Branch is phys-magnons                             
#          MPI+OpenMP+SLK+SLEPC+HDF5_MPI_IO Build                     
#                http://www.yambo-code.org                            
#
# Magnons (S+-) @ Q(1):   1.00000000      0.00000000      0.00000000    [q->0 direction]
#
# [GEN] GF Energies                               : Slater exchange(X)+Perdew & Wang(C)
# [GEN] Green`s Function                          : Resonant
#
# [GEN] Gauge                                     : Length
# [GEN] [r,Vnl] included                          : yes
#
# DIP band range                                  :   1  10
# DIP band range limits                           :  10   1
# DIP e/h energy range                            :  -1.00000000     -1.00000000    [eV]
# RL vectors in the sum                           :   4935
# [r,Vnl] included                                : yes
# Bands ordered                                   : no
# Direct v evaluation                             : no
# Approach used                                   : G-space v
# Dipoles computed                                : R V P Spin
# Wavefunctions                                   : Slater exchange(X)+Perdew & Wang(C)
#
#
# [K] Identifier                                  :   4868
# [K] Dimension                                   :   324
# [K] Bands                                       :   1  10
# [K] Exchange res                                : no
# [K] Correlation res                             : no
# [K] Kernel`s coupling                           : no
# [K] Exchange cpl                                : no
# [K] Correlation cpl                             : no
# [K] W interaction is bare                       : no
# [K] ALDA kernel in R-space                      : yes
# [K] E/h energy range                            :  -1.00000000     -1.00000000    [eV]
# [K] Coupling range                              :   100.000000      100.000000    [o/o]
# [X] Response Kind                               : BAR
#
#
#    E[1] [eV]          Im(Spm)            Re(Spm)            Im(Spm_o)          Re(Spm_o)
#
        0.000000           0.131990E-3        0.007376           0.273661E-4        0.003407
        0.003000           0.132729E-3        0.007396           0.274371E-4        0.003411
        0.006000           0.133475E-3        0.007416           0.275085E-4        0.003415
        0.009000           0.134226E-3        0.007436           0.275801E-4        0.003419
        0.012000           0.134985E-3        0.007456           0.276520E-4        0.003423
        0.015000           0.135749E-3        0.007477           0.277242E-4        0.003427
        0.018000           0.136521E-3        0.007497           0.277967E-4        0.003431
        0.021000           0.137299E-3        0.007518           0.278695E-4        0.003436
        0.024000           0.138083E-3        0.007538           0.279426E-4        0.003440
        0.027000           0.138875E-3        0.007559           0.280160E-4        0.003444
        0.030000           0.139673E-3        0.007580           0.280898E-4        0.003448
        0.033000           0.140479E-3        0.007601           0.281638E-4        0.003452
        0.036000           0.141291E-3        0.007622           0.282381E-4        0.003457
        0.039000           0.142111E-3        0.007643           0.283128E-4        0.003461
        0.042000           0.142938E-3        0.007665           0.283878E-4        0.003465
        0.045000           0.143772E-3        0.007686           0.284630E-4        0.003469
        0.048000           0.144614E-3        0.007708           0.285387E-4        0.003474
        0.051000           0.145463E-3        0.007729           0.286146E-4        0.003478
        0.054000           0.146320E-3        0.007751           0.286908E-4        0.003482
        0.057000           0.147184E-3        0.007773           0.287674E-4        0.003487
        0.060000           0.148056E-3        0.007795           0.288443E-4        0.003491
        0.063000           0.148937E-3        0.007818           0.289215E-4        0.003495
        0.066000           0.149825E-3        0.007840           0.289991E-4        0.003500
        0.069000           0.150721E-3        0.007863           0.290770E-4        0.003504
        0.072000           0.151625E-3        0.007885           0.291552E-4        0.003508
        0.075000           0.152538E-3        0.007908           0.292338E-4        0.003513
        0.078000           0.153458E-3        0.007931           0.293127E-4        0.003517
        0.081000           0.154388E-3        0.007954           0.293919E-4        0.003521
        0.084000           0.155326E-3        0.007977           0.294715E-4        0.003526
        0.087000           0.156272E-3        0.008001           0.295514E-4        0.003530
        0.090000           0.157228E-3        0.008024           0.296317E-4        0.003535
        0.093000           0.158192E-3        0.008048           0.297123E-4        0.003539
        0.096000           0.159165E-3        0.008072           0.297933E-4        0.003544
        0.099000           0.160148E-3        0.008095           0.298746E-4        0.003548
        0.102000           0.161139E-3        0.008120           0.299562E-4        0.003553
        0.105000           0.162140E-3        0.008144           0.300383E-4        0.003557
        0.108000           0.163151E-3        0.008168           0.301207E-4        0.003562
        0.111000           0.164171E-3        0.008193           0.302034E-4        0.003566
        0.114000           0.165200E-3        0.008217           0.302865E-4        0.003571
        0.117000           0.166240E-3        0.008242           0.303700E-4        0.003575
        0.120000           0.167290E-3        0.008267           0.304539E-4        0.003580
        0.123000           0.168349E-3        0.008292           0.305381E-4        0.003584
        0.126000           0.169419E-3        0.008318           0.306227E-4        0.003589
        0.129000           0.170499E-3        0.008343           0.307077E-4        0.003593
        0.132000           0.171590E-3        0.008369           0.307930E-4        0.003598
        0.135000           0.172691E-3        0.008395           0.308787E-4        0.003603
        0.138000           0.173803E-3        0.008420           0.309648E-4        0.003607
        0.141000           0.174926E-3        0.008447           0.310513E-4        0.003612
        0.144000           0.176060E-3        0.008473           0.311382E-4        0.003617
        0.147000           0.177205E-3        0.008499           0.312255E-4        0.003621
        0.150000           0.178361E-3        0.008526           0.313131E-4        0.003626
        0.153000           0.179529E-3        0.008553           0.314012E-4        0.003631
        0.156000           0.180709E-3        0.008580           0.314896E-4        0.003635
        0.159000           0.181900E-3        0.008607           0.315785E-4        0.003640
        0.162000           0.183104E-3        0.008634           0.316677E-4        0.003645
        0.165000           0.184319E-3        0.008662           0.317574E-4        0.003650
        0.168000           0.185547E-3        0.008690           0.318474E-4        0.003654
        0.171000           0.186787E-3        0.008718           0.319379E-4        0.003659
        0.174000           0.188040E-3        0.008746           0.320288E-4        0.003664
        0.177000           0.189306E-3        0.008774           0.321201E-4        0.003669
        0.180000           0.190584E-3        0.008802           0.322118E-4        0.003674
        0.183000           0.191876E-3        0.008831           0.323039E-4        0.003679
        0.186000           0.193181E-3        0.008860           0.323965E-4        0.003683
        0.189000           0.194499E-3        0.008889           0.324895E-4        0.003688
        0.192000           0.195831E-3        0.008918           0.325829E-4        0.003693
        0.195000           0.197178E-3        0.008948           0.326767E-4        0.003698
        0.198000           0.198538E-3        0.008977           0.327710E-4        0.003703
        0.201000           0.199912E-3        0.009007           0.328657E-4        0.003708
        0.204000           0.201301E-3        0.009037           0.329609E-4        0.003713
        0.207000           0.202705E-3        0.009067           0.330564E-4        0.003718
        0.210000           0.204123E-3        0.009098           0.331525E-4        0.003723
        0.213000           0.205557E-3        0.009129           0.332490E-4        0.003728
        0.216000           0.207006E-3        0.009159           0.333459E-4        0.003733
        0.219000           0.208470E-3        0.009191           0.334433E-4        0.003738
        0.222000           0.209950E-3        0.009222           0.335411E-4        0.003743
        0.225000           0.211447E-3        0.009254           0.336395E-4        0.003748
        0.228000           0.212959E-3        0.009285           0.337382E-4        0.003753
        0.231000           0.214488E-3        0.009317           0.338375E-4        0.003758
        0.234000           0.216033E-3        0.009350           0.339372E-4        0.003763
        0.237000           0.217596E-3        0.009382           0.340374E-4        0.003768
        0.240000           0.219176E-3        0.009415           0.341380E-4        0.003773
        0.243000           0.220773E-3        0.009448           0.342391E-4        0.003778
        0.246000           0.222388E-3        0.009481           0.343407E-4        0.003783
        0.249000           0.224021E-3        0.009514           0.344429E-4        0.003789
        0.252000           0.225672E-3        0.009548           0.345454E-4        0.003794
        0.255000           0.227341E-3        0.009582           0.346485E-4        0.003799
        0.258000           0.229030E-3        0.009616           0.347521E-4        0.003804
        0.261000           0.230737E-3        0.009651           0.348562E-4        0.003809
        0.264000           0.232464E-3        0.009685           0.349607E-4        0.003815
        0.267000           0.234210E-3        0.009720           0.350658E-4        0.003820
        0.270000           0.235977E-3        0.009755           0.351714E-4        0.003825
        0.273000           0.237763E-3        0.009791           0.352775E-4        0.003830
        0.276000           0.239571E-3        0.009827           0.353842E-4        0.003836
        0.279000           0.241399E-3        0.009863           0.354913E-4        0.003841
        0.282000           0.243248E-3        0.009899           0.355990E-4        0.003846
        0.285000           0.245119E-3        0.009936           0.357071E-4        0.003852
        0.288000           0.247012E-3        0.009972           0.358159E-4        0.003857
        0.291000           0.248927E-3        0.010010           0.359251E-4        0.003862
        0.294000           0.250864E-3        0.010047           0.360349E-4        0.003868
        0.297000           0.252825E-3        0.010085           0.361452E-4        0.003873
        0.300000           0.254809E-3        0.010123           0.362561E-4        0.003879
        0.303000           0.256816E-3        0.010161           0.363675E-4        0.003884
        0.306000           0.258848E-3        0.010200           0.364795E-4        0.003890
        0.309000           0.260904E-3        0.010239           0.365920E-4        0.003895
        0.312000           0.262985E-3        0.010278           0.367051E-4        0.003901
        0.315000           0.265091E-3        0.010317           0.368188E-4        0.003906
        0.318000           0.267222E-3        0.010357           0.369330E-4        0.003912
        0.321000           0.269380E-3        0.010398           0.370478E-4        0.003917
        0.324000           0.271564E-3        0.010438           0.371632E-4        0.003923
        0.327000           0.273776E-3        0.010479           0.372791E-4        0.003928
        0.330000           0.276014E-3        0.010520           0.373957E-4        0.003934
        0.333000           0.278281E-3        0.010562           0.375128E-4        0.003939
        0.336000           0.280575E-3        0.010603           0.376305E-4        0.003945
        0.339000           0.282899E-3        0.010646           0.377488E-4        0.003951
        0.342000           0.285251E-3        0.010688           0.378677E-4        0.003956
        0.345000           0.287634E-3        0.010731           0.379873E-4        0.003962
        0.348000           0.290047E-3        0.010774           0.381074E-4        0.003968
        0.351000           0.292490E-3        0.010818           0.382282E-4        0.003974
        0.354000           0.294965E-3        0.010862           0.383495E-4        0.003979
        0.357000           0.297471E-3        0.010906           0.384715E-4        0.003985
        0.360000           0.300010E-3        0.010951           0.385941E-4        0.003991
        0.363000           0.302582E-3        0.010996           0.387174E-4        0.003997
        0.366000           0.305188E-3        0.011042           0.388413E-4        0.004002
        0.369000           0.307828E-3        0.011088           0.389658E-4        0.004008
        0.372000           0.310502E-3        0.011134           0.390910E-4        0.004014
        0.375000           0.313211E-3        0.011181           0.392168E-4        0.004020
        0.378000           0.315957E-3        0.011228           0.393433E-4        0.004026
        0.381000           0.318739E-3        0.011275           0.394704E-4        0.004032
        0.384000           0.321558E-3        0.011323           0.395983E-4        0.004038
        0.387000           0.324416E-3        0.011371           0.397267E-4        0.004044
        0.390000           0.327311E-3        0.011420           0.398559E-4        0.004050
        0.393000           0.330246E-3        0.011469           0.399857E-4        0.004056
        0.396000           0.333222E-3        0.011519           0.401162E-4        0.004062
        0.399000           0.336237E-3        0.011569           0.402474E-4        0.004068
        0.402000           0.339295E-3        0.011620           0.403794E-4        0.004074
        0.405000           0.342395E-3        0.011671           0.405120E-4        0.004080
        0.408000           0.345537E-3        0.011722           0.406453E-4        0.004086
        0.411000           0.348724E-3        0.011774           0.407793E-4        0.004092
        0.414000           0.351955E-3        0.011827           0.409141E-4        0.004098
        0.417000           0.355232E-3        0.011880           0.410496E-4        0.004104
        0.420000           0.358555E-3        0.011933           0.411858E-4        0.004110
        0.423000           0.361925E-3        0.011987           0.413227E-4        0.004117
        0.426000           0.365343E-3        0.012042           0.414604E-4        0.004123
        0.429000           0.368811E-3        0.012096           0.415988E-4        0.004129
        0.432000           0.372328E-3        0.012152           0.417379E-4        0.004135
        0.435000           0.375897E-3        0.012208           0.418779E-4        0.004142
        0.438000           0.379517E-3        0.012264           0.420186E-4        0.004148
        0.441000           0.383191E-3        0.012322           0.421600E-4        0.004154
        0.444000           0.386918E-3        0.012379           0.423022E-4        0.004160
        0.447000           0.390701E-3        0.012437           0.424452E-4        0.004167
        0.450000           0.394539E-3        0.012496           0.425891E-4        0.004173
        0.453000           0.398436E-3        0.012556           0.427336E-4        0.004180
        0.456000           0.402390E-3        0.012615           0.428790E-4        0.004186
        0.459000           0.406404E-3        0.012676           0.430252E-4        0.004192
        0.462000           0.410479E-3        0.012737           0.431722E-4        0.004199
        0.465000           0.414616E-3        0.012799           0.433201E-4        0.004205
        0.468000           0.418817E-3        0.012861           0.434687E-4        0.004212
        0.471000           0.423082E-3        0.012924           0.436182E-4        0.004218
        0.474000           0.427413E-3        0.012988           0.437685E-4        0.004225
        0.477000           0.431811E-3        0.013052           0.439197E-4        0.004232
        0.480000           0.436279E-3        0.013117           0.440717E-4        0.004238
        0.483000           0.440816E-3        0.013183           0.442246E-4        0.004245
        0.486000           0.445425E-3        0.013249           0.443783E-4        0.004251
        0.489000           0.450108E-3        0.013316           0.445329E-4        0.004258
        0.492000           0.454865E-3        0.013384           0.446884E-4        0.004265
        0.495000           0.459698E-3        0.013452           0.448448E-4        0.004272
        0.498000           0.464610E-3        0.013521           0.450020E-4        0.004278
        0.501000           0.469601E-3        0.013591           0.451602E-4        0.004285
        0.504000           0.474674E-3        0.013662           0.453193E-4        0.004292
        0.507000           0.479830E-3        0.013733           0.454792E-4        0.004299
        0.510000           0.485071E-3        0.013805           0.456402E-4        0.004305
        0.513000           0.490399E-3        0.013878           0.458020E-4        0.004312
        0.516000           0.495816E-3        0.013952           0.459648E-4        0.004319
        0.519000           0.501324E-3        0.014027           0.461285E-4        0.004326
        0.522000           0.506924E-3        0.014102           0.462932E-4        0.004333
        0.525000           0.512620E-3        0.014178           0.464588E-4        0.004340
        0.528000           0.518413E-3        0.014255           0.466254E-4        0.004347
        0.531000           0.524306E-3        0.014333           0.467930E-4        0.004354
        0.534000           0.530300E-3        0.014412           0.469616E-4        0.004361
        0.537000           0.536398E-3        0.014492           0.471311E-4        0.004368
        0.540000           0.542603E-3        0.014573           0.473017E-4        0.004375
        0.543000           0.548916E-3        0.014654           0.474733E-4        0.004382
        0.546000           0.555342E-3        0.014737           0.476459E-4        0.004389
