#                                                           
#  **    **    **     ****     ****  ******     *******     
# //**  **    ****   /**/**   **/** /*////**   **/////**    
#  //****    **//**  /**//** ** /** /*   /**  **     //**   
#   //**    **  //** /** //***  /** /******  /**      /**   
#    /**   **********/**  //*   /** /*//// **/**      /**   
#    /**  /**//////**/**   /    /** /*    /**//**     **    
#    /**  /**     /**/**        /** /*******  //*******     
#    //   //      // //         //  ///////    ///////      
#                                                           
#        Version 4.3.0 Revision 15624 Hash 7ed12fb          
#                      MPI+SLK Build                        
#                http://www.yambo-code.org                  
#
# EELS @ Q(1)  [q->0 direction]:0.1000E-4  0.000     0.000   
#
#
# - Energies      are Teter 93(XC)
# - Wavefunctions are Teter 93(XC)
#
# - The Green`s function is Retarded -
# - Using the Length Gauge -
# - [r,Vnl] *is* included -
#
#   BSK|Identifier              :5179
#      |Dimension               :49
#      |Bands                   :1 - 50
#      |Exchange           [res]: yes
#      |Correlation        [res]: no
#      |Kernel`s coupling       : no
#      |Exchange           [cpl]: no
#      |Correlation        [cpl]: no
#      |W interaction is bare   : no
#      |ALDA kernel in R-space  : no
#      |RL vectors    [exchange]:4067
#      |E/h energy range    [ev]:-1.000000 - -1.000000
#      |Coupling range     [o/o]: 100.0000 -  100.0000
#  
#   Haydock|Accuracy (requested) [o/o]:0.1000E-2
#          |Accuracy (reached)   [o/o]:0.6272E-3
#          |Iteration                 :7
#
#    E/ev[1]      EEL-Im[2]    EEL-Re[3]    EELo-Im[4]   EELo-Re[5]   EEL`-Im[6]   EEL`-Re[7]
#
    0.000000    -0.000000    -0.983874    -0.000000    -0.980822    -0.000000    -0.983874
   0.1502E-1    0.1746E-6    -.9839       0.2779E-6    -.9808       0.1746E-6    -.9839   
   0.3003E-1    0.3492E-6    -.9839       0.5557E-6    -.9808       0.3492E-6    -.9839   
   0.4505E-1    0.5238E-6    -.9839       0.8336E-6    -.9808       0.5238E-6    -.9839   
   0.6006E-1    0.6984E-6    -.9839       0.1111E-5    -.9808       0.6984E-6    -.9839   
   0.7508E-1    0.8730E-6    -.9839       0.1389E-5    -.9808       0.8730E-6    -.9839   
   0.9009E-1    0.1048E-5    -.9839       0.1667E-5    -.9808       0.1048E-5    -.9839   
   0.1051       0.1222E-5    -.9839       0.1945E-5    -.9808       0.1222E-5    -.9839   
   0.1201       0.1397E-5    -.9839       0.2223E-5    -.9808       0.1397E-5    -.9839   
   0.1351       0.1571E-5    -.9839       0.2501E-5    -.9808       0.1571E-5    -.9839   
   0.1502       0.1746E-5    -.9839       0.2779E-5    -.9808       0.1746E-5    -.9839   
   0.1652       0.1921E-5    -.9839       0.3057E-5    -.9808       0.1921E-5    -.9839   
   0.1802       0.2096E-5    -.9839       0.3335E-5    -.9808       0.2096E-5    -.9839   
   0.1952       0.2270E-5    -.9839       0.3614E-5    -.9808       0.2270E-5    -.9839   
   0.2102       0.2445E-5    -.9839       0.3892E-5    -.9808       0.2445E-5    -.9839   
   0.2252       0.2620E-5    -.9839       0.4170E-5    -.9808       0.2620E-5    -.9839   
   0.2402       0.2795E-5    -.9839       0.4448E-5    -.9808       0.2795E-5    -.9839   
   0.2553       0.2970E-5    -.9839       0.4727E-5    -.9808       0.2970E-5    -.9839   
   0.2703       0.3144E-5    -.9839       0.5005E-5    -.9808       0.3144E-5    -.9839   
   0.2853       0.3319E-5    -.9839       0.5284E-5    -.9808       0.3319E-5    -.9839   
   0.3003       0.3494E-5    -.9839       0.5562E-5    -.9808       0.3494E-5    -.9839   
   0.3153       0.3669E-5    -.9839       0.5841E-5    -.9808       0.3669E-5    -.9839   
   0.3303       0.3844E-5    -.9839       0.6120E-5    -.9808       0.3844E-5    -.9839   
   0.3453       0.4019E-5    -.9839       0.6399E-5    -.9808       0.4019E-5    -.9839   
   0.3604       0.4195E-5    -.9839       0.6677E-5    -.9808       0.4195E-5    -.9839   
   0.3754       0.4370E-5    -.9839       0.6956E-5    -.9808       0.4370E-5    -.9839   
   0.3904       0.4545E-5    -.9839       0.7236E-5    -.9808       0.4545E-5    -.9839   
   0.4054       0.4720E-5    -.9839       0.7515E-5    -.9808       0.4720E-5    -.9839   
   0.4204       0.4896E-5    -.9839       0.7794E-5    -.9808       0.4896E-5    -.9839   
   0.4354       0.5071E-5    -.9839       0.8074E-5    -.9808       0.5071E-5    -.9839   
   0.4505       0.5246E-5    -.9839       0.8353E-5    -.9808       0.5246E-5    -.9839   
   0.4655       0.5422E-5    -.9839       0.8633E-5    -.9808       0.5422E-5    -.9839   
   0.4805       0.5597E-5    -.9839       0.8913E-5    -.9808       0.5597E-5    -.9839   
   0.4955       0.5773E-5    -.9839       0.9193E-5    -.9808       0.5773E-5    -.9839   
   0.5105       0.5949E-5    -.9839       0.9473E-5    -.9808       0.5949E-5    -.9839   
   0.5255       0.6125E-5    -.9839       0.9753E-5    -.9808       0.6125E-5    -.9839   
   0.5405       0.6300E-5    -.9839       0.1003E-4    -.9808       0.6300E-5    -.9839   
   0.5556       0.6476E-5    -.9839       0.1031E-4    -.9808       0.6476E-5    -.9839   
   0.5706       0.6652E-5    -.9839       0.1059E-4    -.9808       0.6652E-5    -.9839   
   0.5856       0.6828E-5    -.9839       0.1087E-4    -.9808       0.6828E-5    -.9839   
   0.6006       0.7004E-5    -.9839       0.1116E-4    -.9808       0.7004E-5    -.9839   
   0.6156       0.7181E-5    -.9839       0.1144E-4    -.9808       0.7181E-5    -.9839   
   0.6306       0.7357E-5    -.9839       0.1172E-4    -.9808       0.7357E-5    -.9839   
   0.6456       0.7533E-5    -.9838       0.1200E-4    -.9808       0.7533E-5    -.9838   
   0.6607       0.7710E-5    -.9838       0.1228E-4    -.9808       0.7710E-5    -.9838   
   0.6757       0.7886E-5    -.9838       0.1256E-4    -.9808       0.7886E-5    -.9838   
   0.6907       0.8063E-5    -.9838       0.1284E-4    -.9808       0.8063E-5    -.9838   
   0.7057       0.8240E-5    -.9838       0.1313E-4    -.9808       0.8240E-5    -.9838   
   0.7207       0.8417E-5    -.9838       0.1341E-4    -.9808       0.8417E-5    -.9838   
   0.7357       0.8594E-5    -.9838       0.1369E-4    -.9808       0.8594E-5    -.9838   
   0.7508       0.8771E-5    -.9838       0.1397E-4    -.9808       0.8771E-5    -.9838   
   0.7658       0.8948E-5    -.9838       0.1426E-4    -.9808       0.8948E-5    -.9838   
   0.7808       0.9125E-5    -.9838       0.1454E-4    -.9808       0.9125E-5    -.9838   
   0.7958       0.9302E-5    -.9838       0.1482E-4    -.9808       0.9302E-5    -.9838   
   0.8108       0.9480E-5    -.9838       0.1511E-4    -.9808       0.9480E-5    -.9838   
   0.8258       0.9657E-5    -.9838       0.1539E-4    -.9808       0.9657E-5    -.9838   
   0.8408       0.9835E-5    -.9838       0.1567E-4    -.9808       0.9835E-5    -.9838   
   0.8559       0.1001E-4    -.9838       0.1596E-4    -.9808       0.1001E-4    -.9838   
   0.8709       0.1019E-4    -.9838       0.1624E-4    -.9808       0.1019E-4    -.9838   
   0.8859       0.1037E-4    -.9838       0.1653E-4    -.9807       0.1037E-4    -.9838   
   0.9009       0.1055E-4    -.9838       0.1681E-4    -.9807       0.1055E-4    -.9838   
   0.9159       0.1072E-4    -.9838       0.1710E-4    -.9807       0.1072E-4    -.9838   
   0.9309       0.1090E-4    -.9838       0.1738E-4    -.9807       0.1090E-4    -.9838   
   0.9459       0.1108E-4    -.9838       0.1767E-4    -.9807       0.1108E-4    -.9838   
   0.9610       0.1126E-4    -.9838       0.1795E-4    -.9807       0.1126E-4    -.9838   
   0.9760       0.1144E-4    -.9838       0.1824E-4    -.9807       0.1144E-4    -.9838   
   0.9910       0.1162E-4    -.9838       0.1853E-4    -.9807       0.1162E-4    -.9838   
    1.006       0.1180E-4    -.9838       0.1881E-4    -.9807       0.1180E-4    -.9838   
    1.021       0.1198E-4    -.9838       0.1910E-4    -.9807       0.1198E-4    -.9838   
    1.036       0.1216E-4    -.9838       0.1939E-4    -.9807       0.1216E-4    -.9838   
    1.051       0.1233E-4    -.9838       0.1967E-4    -.9807       0.1233E-4    -.9838   
    1.066       0.1251E-4    -.9838       0.1996E-4    -.9807       0.1251E-4    -.9838   
    1.081       0.1269E-4    -.9838       0.2025E-4    -.9807       0.1269E-4    -.9838   
    1.096       0.1287E-4    -.9838       0.2054E-4    -.9807       0.1287E-4    -.9838   
    1.111       0.1305E-4    -.9838       0.2083E-4    -.9807       0.1305E-4    -.9838   
    1.126       0.1323E-4    -.9838       0.2112E-4    -.9807       0.1323E-4    -.9838   
    1.141       0.1341E-4    -.9838       0.2141E-4    -.9807       0.1341E-4    -.9838   
    1.156       0.1359E-4    -.9838       0.2170E-4    -.9807       0.1359E-4    -.9838   
    1.171       0.1378E-4    -.9838       0.2198E-4    -.9807       0.1378E-4    -.9838   
    1.186       0.1396E-4    -.9838       0.2228E-4    -.9807       0.1396E-4    -.9838   
    1.201       0.1414E-4    -.9838       0.2257E-4    -.9807       0.1414E-4    -.9838   
    1.216       0.1432E-4    -.9838       0.2286E-4    -.9807       0.1432E-4    -.9838   
    1.231       0.1450E-4    -.9838       0.2315E-4    -.9807       0.1450E-4    -.9838   
    1.246       0.1468E-4    -.9838       0.2344E-4    -.9807       0.1468E-4    -.9838   
    1.261       0.1486E-4    -.9838       0.2373E-4    -.9807       0.1486E-4    -.9838   
    1.276       0.1504E-4    -.9838       0.2402E-4    -.9807       0.1504E-4    -.9838   
    1.291       0.1523E-4    -.9838       0.2432E-4    -.9807       0.1523E-4    -.9838   
    1.306       0.1541E-4    -.9838       0.2461E-4    -.9807       0.1541E-4    -.9838   
    1.321       0.1559E-4    -.9838       0.2490E-4    -.9807       0.1559E-4    -.9838   
    1.336       0.1577E-4    -.9838       0.2519E-4    -.9807       0.1577E-4    -.9838   
    1.351       0.1596E-4    -.9838       0.2549E-4    -.9807       0.1596E-4    -.9838   
    1.366       0.1614E-4    -.9838       0.2578E-4    -.9806       0.1614E-4    -.9838   
    1.381       0.1632E-4    -.9838       0.2608E-4    -.9806       0.1632E-4    -.9838   
    1.396       0.1651E-4    -.9838       0.2637E-4    -.9806       0.1651E-4    -.9838   
    1.411       0.1669E-4    -.9838       0.2667E-4    -.9806       0.1669E-4    -.9838   
    1.426       0.1687E-4    -.9838       0.2696E-4    -.9806       0.1687E-4    -.9838   
    1.441       0.1706E-4    -.9838       0.2726E-4    -.9806       0.1706E-4    -.9838   
    1.456       0.1724E-4    -.9837       0.2756E-4    -.9806       0.1724E-4    -.9837   
    1.471       0.1742E-4    -.9837       0.2785E-4    -.9806       0.1742E-4    -.9837   
    1.486       0.1761E-4    -.9837       0.2815E-4    -.9806       0.1761E-4    -.9837   
    1.502       0.1779E-4    -.9837       0.2845E-4    -.9806       0.1779E-4    -.9837   
    1.517       0.1798E-4    -.9837       0.2875E-4    -.9806       0.1798E-4    -.9837   
    1.532       0.1816E-4    -.9837       0.2905E-4    -.9806       0.1816E-4    -.9837   
    1.547       0.1835E-4    -.9837       0.2934E-4    -.9806       0.1835E-4    -.9837   
    1.562       0.1853E-4    -.9837       0.2964E-4    -.9806       0.1853E-4    -.9837   
    1.577       0.1872E-4    -.9837       0.2994E-4    -.9806       0.1872E-4    -.9837   
    1.592       0.1891E-4    -.9837       0.3024E-4    -.9806       0.1891E-4    -.9837   
    1.607       0.1909E-4    -.9837       0.3054E-4    -.9806       0.1909E-4    -.9837   
    1.622       0.1928E-4    -.9837       0.3085E-4    -.9806       0.1928E-4    -.9837   
    1.637       0.1947E-4    -.9837       0.3115E-4    -.9806       0.1947E-4    -.9837   
    1.652       0.1965E-4    -.9837       0.3145E-4    -.9806       0.1965E-4    -.9837   
    1.667       0.1984E-4    -.9837       0.3175E-4    -.9806       0.1984E-4    -.9837   
    1.682       0.2003E-4    -.9837       0.3206E-4    -.9806       0.2003E-4    -.9837   
    1.697       0.2021E-4    -.9837       0.3236E-4    -.9806       0.2021E-4    -.9837   
    1.712       0.2040E-4    -.9837       0.3266E-4    -.9805       0.2040E-4    -.9837   
    1.727       0.2059E-4    -.9837       0.3297E-4    -.9805       0.2059E-4    -.9837   
    1.742       0.2078E-4    -.9837       0.3327E-4    -.9805       0.2078E-4    -.9837   
    1.757       0.2097E-4    -.9837       0.3358E-4    -.9805       0.2097E-4    -.9837   
    1.772       0.2116E-4    -.9837       0.3388E-4    -.9805       0.2116E-4    -.9837   
    1.787       0.2134E-4    -.9837       0.3419E-4    -.9805       0.2134E-4    -.9837   
    1.802       0.2153E-4    -.9837       0.3450E-4    -.9805       0.2153E-4    -.9837   
    1.817       0.2172E-4    -.9837       0.3481E-4    -.9805       0.2172E-4    -.9837   
    1.832       0.2191E-4    -.9837       0.3511E-4    -.9805       0.2191E-4    -.9837   
    1.847       0.2210E-4    -.9837       0.3542E-4    -.9805       0.2210E-4    -.9837   
    1.862       0.2229E-4    -.9837       0.3573E-4    -.9805       0.2229E-4    -.9837   
    1.877       0.2248E-4    -.9837       0.3604E-4    -.9805       0.2248E-4    -.9837   
    1.892       0.2267E-4    -.9837       0.3635E-4    -.9805       0.2267E-4    -.9837   
    1.907       0.2287E-4    -.9837       0.3666E-4    -.9805       0.2287E-4    -.9837   
    1.922       0.2306E-4    -.9837       0.3697E-4    -.9805       0.2306E-4    -.9837   
    1.937       0.2325E-4    -.9837       0.3728E-4    -.9805       0.2325E-4    -.9837   
    1.952       0.2344E-4    -.9836       0.3760E-4    -.9805       0.2344E-4    -.9836   
    1.967       0.2363E-4    -.9836       0.3791E-4    -.9805       0.2363E-4    -.9836   
    1.982       0.2383E-4    -.9836       0.3822E-4    -.9805       0.2383E-4    -.9836   
    1.997       0.2402E-4    -.9836       0.3854E-4    -.9804       0.2402E-4    -.9836   
    2.012       0.2421E-4    -.9836       0.3885E-4    -.9804       0.2421E-4    -.9836   
    2.027       0.2440E-4    -.9836       0.3917E-4    -.9804       0.2440E-4    -.9836   
    2.042       0.2460E-4    -.9836       0.3948E-4    -.9804       0.2460E-4    -.9836   
    2.057       0.2479E-4    -.9836       0.3980E-4    -.9804       0.2479E-4    -.9836   
    2.072       0.2499E-4    -.9836       0.4012E-4    -.9804       0.2499E-4    -.9836   
    2.087       0.2518E-4    -.9836       0.4043E-4    -.9804       0.2518E-4    -.9836   
    2.102       0.2538E-4    -.9836       0.4075E-4    -.9804       0.2538E-4    -.9836   
    2.117       0.2557E-4    -.9836       0.4107E-4    -.9804       0.2557E-4    -.9836   
    2.132       0.2577E-4    -.9836       0.4139E-4    -.9804       0.2577E-4    -.9836   
    2.147       0.2596E-4    -.9836       0.4171E-4    -.9804       0.2596E-4    -.9836   
    2.162       0.2616E-4    -.9836       0.4203E-4    -.9804       0.2616E-4    -.9836   
    2.177       0.2635E-4    -.9836       0.4235E-4    -.9804       0.2635E-4    -.9836   
    2.192       0.2655E-4    -.9836       0.4268E-4    -.9804       0.2655E-4    -.9836   
    2.207       0.2675E-4    -.9836       0.4300E-4    -.9804       0.2675E-4    -.9836   
    2.222       0.2695E-4    -.9836       0.4332E-4    -.9804       0.2695E-4    -.9836   
    2.237       0.2714E-4    -.9836       0.4365E-4    -.9803       0.2714E-4    -.9836   
    2.252       0.2734E-4    -.9836       0.4397E-4    -.9803       0.2734E-4    -.9836   
    2.267       0.2754E-4    -.9836       0.4430E-4    -.9803       0.2754E-4    -.9836   
    2.282       0.2774E-4    -.9836       0.4462E-4    -.9803       0.2774E-4    -.9836   
    2.297       0.2794E-4    -.9836       0.4495E-4    -.9803       0.2794E-4    -.9836   
    2.312       0.2814E-4    -.9836       0.4528E-4    -.9803       0.2814E-4    -.9836   
    2.327       0.2834E-4    -.9836       0.4560E-4    -.9803       0.2834E-4    -.9836   
    2.342       0.2854E-4    -.9835       0.4593E-4    -.9803       0.2854E-4    -.9835   
    2.357       0.2874E-4    -.9835       0.4626E-4    -.9803       0.2874E-4    -.9835   
    2.372       0.2894E-4    -.9835       0.4659E-4    -.9803       0.2894E-4    -.9835   
    2.387       0.2914E-4    -.9835       0.4692E-4    -.9803       0.2914E-4    -.9835   
    2.402       0.2934E-4    -.9835       0.4725E-4    -.9803       0.2934E-4    -.9835   
    2.417       0.2954E-4    -.9835       0.4759E-4    -.9803       0.2954E-4    -.9835   
    2.432       0.2975E-4    -.9835       0.4792E-4    -.9803       0.2975E-4    -.9835   
    2.447       0.2995E-4    -.9835       0.4825E-4    -.9803       0.2995E-4    -.9835   
    2.462       0.3015E-4    -.9835       0.4859E-4    -.9802       0.3015E-4    -.9835   
    2.477       0.3035E-4    -.9835       0.4892E-4    -.9802       0.3035E-4    -.9835   
    2.492       0.3056E-4    -.9835       0.4926E-4    -.9802       0.3056E-4    -.9835   
    2.508       0.3076E-4    -.9835       0.4960E-4    -.9802       0.3076E-4    -.9835   
    2.523       0.3097E-4    -.9835       0.4993E-4    -.9802       0.3097E-4    -.9835   
    2.538       0.3117E-4    -.9835       0.5027E-4    -.9802       0.3117E-4    -.9835   
    2.553       0.3138E-4    -.9835       0.5061E-4    -.9802       0.3138E-4    -.9835   
    2.568       0.3158E-4    -.9835       0.5095E-4    -.9802       0.3158E-4    -.9835   
    2.583       0.3179E-4    -.9835       0.5129E-4    -.9802       0.3179E-4    -.9835   
    2.598       0.3200E-4    -.9835       0.5164E-4    -.9802       0.3200E-4    -.9835   
    2.613       0.3220E-4    -.9835       0.5198E-4    -.9802       0.3220E-4    -.9835   
    2.628       0.3241E-4    -.9835       0.5232E-4    -.9802       0.3241E-4    -.9835   
    2.643       0.3262E-4    -.9835       0.5267E-4    -.9802       0.3262E-4    -.9835   
    2.658       0.3283E-4    -.9835       0.5301E-4    -.9801       0.3283E-4    -.9835   
    2.673       0.3303E-4    -.9834       0.5336E-4    -.9801       0.3303E-4    -.9834   
    2.688       0.3324E-4    -.9834       0.5370E-4    -.9801       0.3324E-4    -.9834   
    2.703       0.3345E-4    -.9834       0.5405E-4    -.9801       0.3345E-4    -.9834   
    2.718       0.3366E-4    -.9834       0.5440E-4    -.9801       0.3366E-4    -.9834   
    2.733       0.3387E-4    -.9834       0.5475E-4    -.9801       0.3387E-4    -.9834   
    2.748       0.3408E-4    -.9834       0.5510E-4    -.9801       0.3408E-4    -.9834   
    2.763       0.3429E-4    -.9834       0.5545E-4    -.9801       0.3429E-4    -.9834   
    2.778       0.3451E-4    -.9834       0.5580E-4    -.9801       0.3451E-4    -.9834   
    2.793       0.3472E-4    -.9834       0.5615E-4    -.9801       0.3472E-4    -.9834   
    2.808       0.3493E-4    -.9834       0.5651E-4    -.9801       0.3493E-4    -.9834   
    2.823       0.3514E-4    -.9834       0.5686E-4    -.9801       0.3514E-4    -.9834   
    2.838       0.3536E-4    -.9834       0.5722E-4    -.9800       0.3536E-4    -.9834   
    2.853       0.3557E-4    -.9834       0.5757E-4    -.9800       0.3557E-4    -.9834   
    2.868       0.3578E-4    -.9834       0.5793E-4    -.9800       0.3578E-4    -.9834   
    2.883       0.3600E-4    -.9834       0.5829E-4    -.9800       0.3600E-4    -.9834   
    2.898       0.3621E-4    -.9834       0.5865E-4    -.9800       0.3621E-4    -.9834   
    2.913       0.3643E-4    -.9834       0.5901E-4    -.9800       0.3643E-4    -.9834   
    2.928       0.3665E-4    -.9834       0.5937E-4    -.9800       0.3665E-4    -.9834   
    2.943       0.3686E-4    -.9834       0.5973E-4    -.9800       0.3686E-4    -.9834   
    2.958       0.3708E-4    -.9833       0.6010E-4    -.9800       0.3708E-4    -.9833   
    2.973       0.3730E-4    -.9833       0.6046E-4    -.9800       0.3730E-4    -.9833   
    2.988       0.3751E-4    -.9833       0.6082E-4    -.9800       0.3751E-4    -.9833   
