#                                                           
#  **    **    **     ****     ****  ******     *******     
# //**  **    ****   /**/**   **/** /*////**   **/////**    
#  //****    **//**  /**//** ** /** /*   /**  **     //**   
#   //**    **  //** /** //***  /** /******  /**      /**   
#    /**   **********/**  //*   /** /*//// **/**      /**   
#    /**  /**//////**/**   /    /** /*    /**//**     **    
#    /**  /**     /**/**        /** /*******  //*******     
#    //   //      // //         //  ///////    ///////      
#                                                           
#        Version 4.2.0 Revision 14319 Hash 8432f48          
#                  MPI+SLK+OpenMP Build                     
#                http://www.yambo-code.org                  
#
# Absorption @ Q(1) [q->0 direction] :0.1000E-4  0.000     0.000   
#
#
# - Energies      are Teter 93(XC)
# - Wavefunctions are Teter 93(XC)
#
# - The Green`s function is Retarded -
# - Using the Length Gauge -
# - [r,Vnl] *is* included -
#
#   BSK|Identifier              :6493
#      |Dimension               :199
#      |Bands                   :1 - 200
#      |Exchange           [res]: yes
#      |Correlation        [res]: no
#      |Kernel`s coupling       : no
#      |Exchange           [cpl]: no
#      |Correlation        [cpl]: no
#      |W interaction is bare   : no
#      |ALDA kernel in R-space  : no
#      |RL vectors    [exchange]:9045
#      |E/h energy range    [ev]:-1.000000 - -1.000000
#      |Coupling range     [o/o]: 100.0000 -  100.0000
#
#  E/ev[1]    EPS-Im[2]  EPS-Re[3]  EPSo-Im[4] EPSo-Re[5]
#
  0.000000   0.000000   1.010405   0.000000   1.016804
 0.1502E-1  0.2096E-6   1.010     0.7637E-6   1.017   
 0.3003E-1  0.4191E-6   1.010     0.1527E-5   1.017   
 0.4505E-1  0.6287E-6   1.010     0.2291E-5   1.017   
 0.6006E-1  0.8383E-6   1.010     0.3055E-5   1.017   
 0.7508E-1  0.1048E-5   1.010     0.3819E-5   1.017   
 0.9009E-1  0.1257E-5   1.010     0.4583E-5   1.017   
 0.1051     0.1467E-5   1.010     0.5348E-5   1.017   
 0.1201     0.1677E-5   1.010     0.6112E-5   1.017   
 0.1351     0.1887E-5   1.010     0.6877E-5   1.017   
 0.1502     0.2096E-5   1.010     0.7642E-5   1.017   
 0.1652     0.2306E-5   1.010     0.8408E-5   1.017   
 0.1802     0.2516E-5   1.010     0.9173E-5   1.017   
 0.1952     0.2726E-5   1.010     0.9939E-5   1.017   
 0.2102     0.2936E-5   1.010     0.1071E-4   1.017   
 0.2252     0.3146E-5   1.010     0.1147E-4   1.017   
 0.2402     0.3356E-5   1.010     0.1224E-4   1.017   
 0.2553     0.3566E-5   1.010     0.1301E-4   1.017   
 0.2703     0.3776E-5   1.010     0.1378E-4   1.017   
 0.2853     0.3987E-5   1.010     0.1455E-4   1.017   
 0.3003     0.4197E-5   1.010     0.1532E-4   1.017   
 0.3153     0.4408E-5   1.010     0.1609E-4   1.017   
 0.3303     0.4618E-5   1.010     0.1686E-4   1.017   
 0.3453     0.4829E-5   1.010     0.1763E-4   1.017   
 0.3604     0.5040E-5   1.010     0.1840E-4   1.017   
 0.3754     0.5250E-5   1.010     0.1917E-4   1.017   
 0.3904     0.5461E-5   1.010     0.1995E-4   1.017   
 0.4054     0.5673E-5   1.010     0.2072E-4   1.017   
 0.4204     0.5884E-5   1.010     0.2150E-4   1.017   
 0.4354     0.6095E-5   1.010     0.2228E-4   1.017   
 0.4505     0.6307E-5   1.010     0.2305E-4   1.017   
 0.4655     0.6518E-5   1.010     0.2383E-4   1.017   
 0.4805     0.6730E-5   1.010     0.2461E-4   1.017   
 0.4955     0.6942E-5   1.010     0.2539E-4   1.017   
 0.5105     0.7154E-5   1.010     0.2617E-4   1.017   
 0.5255     0.7366E-5   1.010     0.2696E-4   1.017   
 0.5405     0.7579E-5   1.010     0.2774E-4   1.017   
 0.5556     0.7791E-5   1.010     0.2853E-4   1.017   
 0.5706     0.8004E-5   1.010     0.2931E-4   1.017   
 0.5856     0.8217E-5   1.010     0.3010E-4   1.017   
 0.6006     0.8430E-5   1.010     0.3089E-4   1.017   
 0.6156     0.8643E-5   1.010     0.3168E-4   1.017   
 0.6306     0.8857E-5   1.010     0.3247E-4   1.017   
 0.6456     0.9070E-5   1.010     0.3326E-4   1.017   
 0.6607     0.9284E-5   1.010     0.3406E-4   1.017   
 0.6757     0.9498E-5   1.010     0.3485E-4   1.017   
 0.6907     0.9712E-5   1.010     0.3565E-4   1.017   
 0.7057     0.9927E-5   1.010     0.3645E-4   1.017   
 0.7207     0.1014E-4   1.010     0.3725E-4   1.017   
 0.7357     0.1036E-4   1.010     0.3805E-4   1.017   
 0.7508     0.1057E-4   1.010     0.3885E-4   1.017   
 0.7658     0.1079E-4   1.010     0.3966E-4   1.017   
 0.7808     0.1100E-4   1.010     0.4046E-4   1.017   
 0.7958     0.1122E-4   1.010     0.4127E-4   1.017   
 0.8108     0.1143E-4   1.010     0.4208E-4   1.017   
 0.8258     0.1165E-4   1.010     0.4290E-4   1.017   
 0.8408     0.1187E-4   1.010     0.4371E-4   1.017   
 0.8559     0.1208E-4   1.010     0.4453E-4   1.017   
 0.8709     0.1230E-4   1.010     0.4534E-4   1.017   
 0.8859     0.1252E-4   1.010     0.4616E-4   1.017   
 0.9009     0.1274E-4   1.010     0.4698E-4   1.017   
 0.9159     0.1295E-4   1.010     0.4781E-4   1.017   
 0.9309     0.1317E-4   1.010     0.4863E-4   1.017   
 0.9459     0.1339E-4   1.010     0.4946E-4   1.017   
 0.9610     0.1361E-4   1.010     0.5029E-4   1.017   
 0.9760     0.1383E-4   1.010     0.5112E-4   1.017   
 0.9910     0.1405E-4   1.010     0.5196E-4   1.017   
  1.006     0.1427E-4   1.010     0.5279E-4   1.017   
  1.021     0.1449E-4   1.010     0.5363E-4   1.017   
  1.036     0.1471E-4   1.010     0.5447E-4   1.017   
  1.051     0.1493E-4   1.010     0.5532E-4   1.017   
  1.066     0.1515E-4   1.010     0.5616E-4   1.017   
  1.081     0.1537E-4   1.010     0.5701E-4   1.017   
  1.096     0.1559E-4   1.010     0.5786E-4   1.017   
  1.111     0.1581E-4   1.010     0.5872E-4   1.017   
  1.126     0.1604E-4   1.010     0.5957E-4   1.017   
  1.141     0.1626E-4   1.010     0.6043E-4   1.017   
  1.156     0.1648E-4   1.010     0.6129E-4   1.017   
  1.171     0.1671E-4   1.011     0.6216E-4   1.017   
  1.186     0.1693E-4   1.011     0.6302E-4   1.017   
  1.201     0.1715E-4   1.011     0.6389E-4   1.017   
  1.216     0.1738E-4   1.011     0.6477E-4   1.017   
  1.231     0.1760E-4   1.011     0.6564E-4   1.017   
  1.246     0.1783E-4   1.011     0.6652E-4   1.017   
  1.261     0.1805E-4   1.011     0.6740E-4   1.017   
  1.276     0.1828E-4   1.011     0.6828E-4   1.017   
  1.291     0.1851E-4   1.011     0.6917E-4   1.017   
  1.306     0.1873E-4   1.011     0.7006E-4   1.017   
  1.321     0.1896E-4   1.011     0.7096E-4   1.017   
  1.336     0.1919E-4   1.011     0.7185E-4   1.017   
  1.351     0.1942E-4   1.011     0.7275E-4   1.017   
  1.366     0.1964E-4   1.011     0.7366E-4   1.017   
  1.381     0.1987E-4   1.011     0.7456E-4   1.017   
  1.396     0.2010E-4   1.011     0.7547E-4   1.017   
  1.411     0.2033E-4   1.011     0.7639E-4   1.017   
  1.426     0.2056E-4   1.011     0.7730E-4   1.017   
  1.441     0.2079E-4   1.011     0.7822E-4   1.017   
  1.456     0.2103E-4   1.011     0.7915E-4   1.017   
  1.471     0.2126E-4   1.011     0.8007E-4   1.017   
  1.486     0.2149E-4   1.011     0.8101E-4   1.017   
  1.502     0.2172E-4   1.011     0.8194E-4   1.017   
  1.517     0.2196E-4   1.011     0.8288E-4   1.017   
  1.532     0.2219E-4   1.011     0.8382E-4   1.017   
  1.547     0.2242E-4   1.011     0.8477E-4   1.017   
  1.562     0.2266E-4   1.011     0.8572E-4   1.017   
  1.577     0.2289E-4   1.011     0.8667E-4   1.017   
  1.592     0.2313E-4   1.011     0.8763E-4   1.017   
  1.607     0.2337E-4   1.011     0.8859E-4   1.017   
  1.622     0.2360E-4   1.011     0.8956E-4   1.018   
  1.637     0.2384E-4   1.011     0.9053E-4   1.018   
  1.652     0.2408E-4   1.011     0.9151E-4   1.018   
  1.667     0.2432E-4   1.011     0.9249E-4   1.018   
  1.682     0.2456E-4   1.011     0.9347E-4   1.018   
  1.697     0.2480E-4   1.011     0.9446E-4   1.018   
  1.712     0.2504E-4   1.011     0.9545E-4   1.018   
  1.727     0.2528E-4   1.011     0.9645E-4   1.018   
  1.742     0.2552E-4   1.011     0.9745E-4   1.018   
  1.757     0.2576E-4   1.011     0.9846E-4   1.018   
  1.772     0.2600E-4   1.011     0.9947E-4   1.018   
  1.787     0.2625E-4   1.011     0.1005E-3   1.018   
  1.802     0.2649E-4   1.011     0.1015E-3   1.018   
  1.817     0.2674E-4   1.011     0.1025E-3   1.018   
  1.832     0.2698E-4   1.011     0.1036E-3   1.018   
  1.847     0.2723E-4   1.011     0.1046E-3   1.018   
  1.862     0.2747E-4   1.011     0.1056E-3   1.018   
  1.877     0.2772E-4   1.011     0.1067E-3   1.018   
  1.892     0.2797E-4   1.011     0.1077E-3   1.018   
  1.907     0.2822E-4   1.011     0.1088E-3   1.018   
  1.922     0.2846E-4   1.011     0.1099E-3   1.018   
  1.937     0.2871E-4   1.011     0.1109E-3   1.018   
  1.952     0.2896E-4   1.011     0.1120E-3   1.018   
  1.967     0.2922E-4   1.011     0.1131E-3   1.018   
  1.982     0.2947E-4   1.011     0.1142E-3   1.018   
  1.997     0.2972E-4   1.011     0.1152E-3   1.018   
  2.012     0.2997E-4   1.011     0.1163E-3   1.018   
  2.027     0.3023E-4   1.011     0.1174E-3   1.018   
  2.042     0.3048E-4   1.011     0.1186E-3   1.018   
  2.057     0.3074E-4   1.011     0.1197E-3   1.018   
  2.072     0.3099E-4   1.011     0.1208E-3   1.018   
  2.087     0.3125E-4   1.011     0.1219E-3   1.018   
  2.102     0.3151E-4   1.011     0.1230E-3   1.018   
  2.117     0.3177E-4   1.011     0.1242E-3   1.018   
  2.132     0.3202E-4   1.011     0.1253E-3   1.018   
  2.147     0.3228E-4   1.011     0.1265E-3   1.018   
  2.162     0.3254E-4   1.011     0.1276E-3   1.018   
  2.177     0.3281E-4   1.011     0.1288E-3   1.018   
  2.192     0.3307E-4   1.011     0.1300E-3   1.018   
  2.207     0.3333E-4   1.011     0.1311E-3   1.018   
  2.222     0.3360E-4   1.011     0.1323E-3   1.018   
  2.237     0.3386E-4   1.011     0.1335E-3   1.018   
  2.252     0.3413E-4   1.011     0.1347E-3   1.018   
  2.267     0.3439E-4   1.011     0.1359E-3   1.018   
  2.282     0.3466E-4   1.011     0.1371E-3   1.018   
  2.297     0.3493E-4   1.011     0.1384E-3   1.018   
  2.312     0.3520E-4   1.011     0.1396E-3   1.018   
  2.327     0.3547E-4   1.011     0.1408E-3   1.018   
  2.342     0.3574E-4   1.011     0.1421E-3   1.018   
  2.357     0.3601E-4   1.011     0.1433E-3   1.018   
  2.372     0.3628E-4   1.011     0.1446E-3   1.018   
  2.387     0.3655E-4   1.011     0.1458E-3   1.018   
  2.402     0.3683E-4   1.011     0.1471E-3   1.018   
  2.417     0.3710E-4   1.011     0.1484E-3   1.018   
  2.432     0.3738E-4   1.011     0.1497E-3   1.018   
  2.447     0.3766E-4   1.011     0.1510E-3   1.018   
  2.462     0.3793E-4   1.011     0.1523E-3   1.019   
  2.477     0.3821E-4   1.011     0.1536E-3   1.019   
  2.492     0.3849E-4   1.011     0.1549E-3   1.019   
  2.508     0.3877E-4   1.011     0.1563E-3   1.019   
  2.523     0.3906E-4   1.011     0.1576E-3   1.019   
  2.538     0.3934E-4   1.011     0.1589E-3   1.019   
  2.553     0.3962E-4   1.011     0.1603E-3   1.019   
  2.568     0.3991E-4   1.011     0.1617E-3   1.019   
  2.583     0.4019E-4   1.011     0.1630E-3   1.019   
  2.598     0.4048E-4   1.011     0.1644E-3   1.019   
  2.613     0.4077E-4   1.011     0.1658E-3   1.019   
  2.628     0.4106E-4   1.011     0.1672E-3   1.019   
  2.643     0.4135E-4   1.011     0.1686E-3   1.019   
  2.658     0.4164E-4   1.011     0.1701E-3   1.019   
  2.673     0.4193E-4   1.011     0.1715E-3   1.019   
  2.688     0.4223E-4   1.011     0.1730E-3   1.019   
  2.703     0.4252E-4   1.011     0.1744E-3   1.019   
  2.718     0.4282E-4   1.011     0.1759E-3   1.019   
  2.733     0.4311E-4   1.011     0.1773E-3   1.019   
  2.748     0.4341E-4   1.011     0.1788E-3   1.019   
  2.763     0.4371E-4   1.011     0.1803E-3   1.019   
  2.778     0.4401E-4   1.011     0.1818E-3   1.019   
  2.793     0.4431E-4   1.011     0.1833E-3   1.019   
  2.808     0.4461E-4   1.011     0.1849E-3   1.019   
  2.823     0.4492E-4   1.011     0.1864E-3   1.019   
  2.838     0.4522E-4   1.011     0.1880E-3   1.019   
  2.853     0.4553E-4   1.011     0.1895E-3   1.019   
  2.868     0.4584E-4   1.011     0.1911E-3   1.019   
  2.883     0.4615E-4   1.011     0.1927E-3   1.019   
  2.898     0.4646E-4   1.011     0.1943E-3   1.019   
  2.913     0.4677E-4   1.011     0.1959E-3   1.019   
  2.928     0.4708E-4   1.011     0.1975E-3   1.019   
  2.943     0.4739E-4   1.011     0.1992E-3   1.019   
  2.958     0.4771E-4   1.011     0.2008E-3   1.019   
  2.973     0.4802E-4   1.011     0.2025E-3   1.019   
  2.988     0.4834E-4   1.011     0.2041E-3   1.019   
  3.003     0.4866E-4   1.011     0.2058E-3   1.019   
  3.018     0.4898E-4   1.011     0.2075E-3   1.019   
  3.033     0.4930E-4   1.011     0.2092E-3   1.020   
  3.048     0.4963E-4   1.011     0.2110E-3   1.020   
  3.063     0.4995E-4   1.011     0.2127E-3   1.020   
  3.078     0.5028E-4   1.011     0.2145E-3   1.020   
  3.093     0.5060E-4   1.011     0.2162E-3   1.020   
  3.108     0.5093E-4   1.011     0.2180E-3   1.020   
  3.123     0.5126E-4   1.011     0.2198E-3   1.020   
  3.138     0.5160E-4   1.011     0.2216E-3   1.020   
  3.153     0.5193E-4   1.011     0.2234E-3   1.020   
  3.168     0.5226E-4   1.011     0.2253E-3   1.020   
  3.183     0.5260E-4   1.011     0.2271E-3   1.020   
  3.198     0.5294E-4   1.011     0.2290E-3   1.020   
  3.213     0.5328E-4   1.011     0.2309E-3   1.020   
  3.228     0.5362E-4   1.011     0.2328E-3   1.020   
  3.243     0.5396E-4   1.011     0.2347E-3   1.020   
  3.258     0.5430E-4   1.011     0.2366E-3   1.020   
  3.273     0.5465E-4   1.011     0.2386E-3   1.020   
  3.288     0.5499E-4   1.011     0.2406E-3   1.020   
  3.303     0.5534E-4   1.011     0.2425E-3   1.020   
  3.318     0.5569E-4   1.011     0.2445E-3   1.020   
  3.333     0.5604E-4   1.011     0.2466E-3   1.020   
  3.348     0.5640E-4   1.011     0.2486E-3   1.020   
  3.363     0.5675E-4   1.011     0.2507E-3   1.020   
  3.378     0.5711E-4   1.011     0.2527E-3   1.020   
  3.393     0.5747E-4   1.011     0.2548E-3   1.020   
  3.408     0.5783E-4   1.011     0.2569E-3   1.020   
  3.423     0.5819E-4   1.011     0.2591E-3   1.020   
  3.438     0.5855E-4   1.011     0.2612E-3   1.020   
  3.453     0.5892E-4   1.011     0.2634E-3   1.021   
  3.468     0.5929E-4   1.011     0.2655E-3   1.021   
  3.483     0.5966E-4   1.011     0.2678E-3   1.021   
  3.498     0.6003E-4   1.011     0.2700E-3   1.021   
  3.514     0.6040E-4   1.011     0.2722E-3   1.021   
  3.529     0.6077E-4   1.011     0.2745E-3   1.021   
  3.544     0.6115E-4   1.011     0.2768E-3   1.021   
  3.559     0.6153E-4   1.011     0.2791E-3   1.021   
  3.574     0.6191E-4   1.011     0.2814E-3   1.021   
  3.589     0.6229E-4   1.011     0.2838E-3   1.021   
  3.604     0.6267E-4   1.011     0.2861E-3   1.021   
  3.619     0.6306E-4   1.011     0.2885E-3   1.021   
  3.634     0.6345E-4   1.011     0.2910E-3   1.021   
  3.649     0.6384E-4   1.011     0.2934E-3   1.021   
  3.664     0.6423E-4   1.011     0.2959E-3   1.021   
  3.679     0.6462E-4   1.011     0.2984E-3   1.021   
  3.694     0.6502E-4   1.011     0.3009E-3   1.021   
  3.709     0.6542E-4   1.011     0.3034E-3   1.021   
  3.724     0.6582E-4   1.011     0.3060E-3   1.021   
  3.739     0.6622E-4   1.012     0.3086E-3   1.021   
  3.754     0.6662E-4   1.012     0.3112E-3   1.021   
  3.769     0.6703E-4   1.012     0.3138E-3   1.021   
  3.784     0.6744E-4   1.012     0.3165E-3   1.021   
  3.799     0.6785E-4   1.012     0.3192E-3   1.022   
  3.814     0.6826E-4   1.012     0.3219E-3   1.022   
  3.829     0.6868E-4   1.012     0.3246E-3   1.022   
  3.844     0.6910E-4   1.012     0.3274E-3   1.022   
  3.859     0.6952E-4   1.012     0.3302E-3   1.022   
  3.874     0.6994E-4   1.012     0.3330E-3   1.022   
  3.889     0.7036E-4   1.012     0.3359E-3   1.022   
  3.904     0.7079E-4   1.012     0.3388E-3   1.022   
  3.919     0.7122E-4   1.012     0.3417E-3   1.022   
  3.934     0.7165E-4   1.012     0.3446E-3   1.022   
  3.949     0.7209E-4   1.012     0.3476E-3   1.022   
  3.964     0.7252E-4   1.012     0.3506E-3   1.022   
  3.979     0.7296E-4   1.012     0.3537E-3   1.022   
  3.994     0.7340E-4   1.012     0.3567E-3   1.022   
  4.009     0.7385E-4   1.012     0.3599E-3   1.022   
  4.024     0.7429E-4   1.012     0.3630E-3   1.022   
  4.039     0.7474E-4   1.012     0.3662E-3   1.022   
  4.054     0.7519E-4   1.012     0.3694E-3   1.022   
  4.069     0.7565E-4   1.012     0.3726E-3   1.022   
  4.084     0.7611E-4   1.012     0.3759E-3   1.023   
  4.099     0.7657E-4   1.012     0.3792E-3   1.023   
  4.114     0.7703E-4   1.012     0.3826E-3   1.023   
  4.129     0.7749E-4   1.012     0.3859E-3   1.023   
  4.144     0.7796E-4   1.012     0.3894E-3   1.023   
  4.159     0.7843E-4   1.012     0.3928E-3   1.023   
  4.174     0.7890E-4   1.012     0.3963E-3   1.023   
  4.189     0.7938E-4   1.012     0.3999E-3   1.023   
  4.204     0.7986E-4   1.012     0.4035E-3   1.023   
  4.219     0.8034E-4   1.012     0.4071E-3   1.023   
  4.234     0.8083E-4   1.012     0.4107E-3   1.023   
  4.249     0.8131E-4   1.012     0.4144E-3   1.023   
  4.264     0.8181E-4   1.012     0.4182E-3   1.023   
  4.279     0.8230E-4   1.012     0.4220E-3   1.023   
  4.294     0.8280E-4   1.012     0.4258E-3   1.023   
  4.309     0.8330E-4   1.012     0.4297E-3   1.023   
  4.324     0.8380E-4   1.012     0.4336E-3   1.023   
  4.339     0.8431E-4   1.012     0.4376E-3   1.024   
  4.354     0.8481E-4   1.012     0.4416E-3   1.024   
  4.369     0.8533E-4   1.012     0.4457E-3   1.024   
  4.384     0.8584E-4   1.012     0.4498E-3   1.024   
  4.399     0.8636E-4   1.012     0.4540E-3   1.024   
  4.414     0.8688E-4   1.012     0.4582E-3   1.024   
  4.429     0.8741E-4   1.012     0.4624E-3   1.024   
  4.444     0.8794E-4   1.012     0.4668E-3   1.024   
  4.459     0.8847E-4   1.012     0.4711E-3   1.024   
  4.474     0.8901E-4   1.012     0.4756E-3   1.024   
  4.489     0.8955E-4   1.012     0.4800E-3   1.024   
  4.505     0.9009E-4   1.012     0.4846E-3   1.024   
  4.520     0.9064E-4   1.012     0.4892E-3   1.024   
  4.535     0.9119E-4   1.012     0.4938E-3   1.024   
  4.550     0.9174E-4   1.012     0.4985E-3   1.025   
  4.565     0.9230E-4   1.012     0.5033E-3   1.025   
  4.580     0.9286E-4   1.012     0.5081E-3   1.025   
  4.595     0.9342E-4   1.012     0.5130E-3   1.025   
  4.610     0.9399E-4   1.012     0.5179E-3   1.025   
  4.625     0.9457E-4   1.012     0.5229E-3   1.025   
  4.640     0.9514E-4   1.012     0.5280E-3   1.025   
  4.655     0.9572E-4   1.012     0.5332E-3   1.025   
  4.670     0.9631E-4   1.012     0.5384E-3   1.025   
  4.685     0.9689E-4   1.012     0.5437E-3   1.025   
  4.700     0.9749E-4   1.012     0.5490E-3   1.025   
  4.715     0.9808E-4   1.012     0.5544E-3   1.025   
  4.730     0.9868E-4   1.012     0.5599E-3   1.025   
  4.745     0.9929E-4   1.012     0.5655E-3   1.026   
  4.760     0.9990E-4   1.012     0.5711E-3   1.026   
  4.775     0.1005E-3   1.012     0.5769E-3   1.026   
  4.790     0.1011E-3   1.012     0.5827E-3   1.026   
  4.805     0.1018E-3   1.012     0.5885E-3   1.026   
  4.820     0.1024E-3   1.012     0.5945E-3   1.026   
  4.835     0.1030E-3   1.012     0.6005E-3   1.026   
  4.850     0.1036E-3   1.012     0.6067E-3   1.026   
  4.865     0.1043E-3   1.012     0.6129E-3   1.026   
  4.880     0.1049E-3   1.012     0.6192E-3   1.026   
  4.895     0.1056E-3   1.012     0.6256E-3   1.026   
  4.910     0.1062E-3   1.012     0.6320E-3   1.027   
  4.925     0.1069E-3   1.013     0.6386E-3   1.027   
  4.940     0.1076E-3   1.013     0.6453E-3   1.027   
  4.955     0.1082E-3   1.013     0.6520E-3   1.027   
  4.970     0.1089E-3   1.013     0.6589E-3   1.027   
  4.985     0.1096E-3   1.013     0.6658E-3   1.027   
  5.000     0.1103E-3   1.013     0.6729E-3   1.027   
