#                                                           
#  **    **    **     ****     ****  ******     *******     
# //**  **    ****   /**/**   **/** /*////**   **/////**    
#  //****    **//**  /**//** ** /** /*   /**  **     //**   
#   //**    **  //** /** //***  /** /******  /**      /**   
#    /**   **********/**  //*   /** /*//// **/**      /**   
#    /**  /**//////**/**   /    /** /*    /**//**     **    
#    /**  /**     /**/**        /** /*******  //*******     
#    //   //      // //         //  ///////    ///////      
#                                                           
#        Version 4.2.0 Revision 14319 Hash 8432f48          
#                  MPI+SLK+OpenMP Build                     
#                http://www.yambo-code.org                  
#
# Polarizability ( -<<X>> ) [volume @ Q(1) [q->0 direction]0.1000E-4  0.000     0.000   
#
#
# - Energies      are Teter 93(XC)
# - Wavefunctions are Teter 93(XC)
#
# - The Green`s function is Retarded -
# - Using the Length Gauge -
# - [r,Vnl] *is* included -
#
#   BSK|Identifier              :6493
#      |Dimension               :199
#      |Bands                   :1 - 200
#      |Exchange           [res]: yes
#      |Correlation        [res]: no
#      |Kernel`s coupling       : no
#      |Exchange           [cpl]: no
#      |Correlation        [cpl]: no
#      |W interaction is bare   : no
#      |ALDA kernel in R-space  : no
#      |RL vectors    [exchange]:9045
#      |E/h energy range    [ev]:-1.000000 - -1.000000
#      |Coupling range     [o/o]: 100.0000 -  100.0000
#  
#   Haydock|Accuracy (requested) [o/o]:0.1000E-2
#          |Accuracy (reached)   [o/o]:0.9208E-3
#          |Iteration                 :16
#
#  E/ev[1]    ALPHA-Im[2]ALPHA-Re[3]ALPHAo-Im[4ALPHAo-Re[5ALPHA`-Im[6ALPHA`-Re[7]
#
   0.00000    0.00000   12.80394    0.00000   20.54934    0.00000   12.80394
 0.1502E-1  0.2552E-3   12.80     0.9184E-3   20.55     0.2552E-3   12.80   
 0.3003E-1  0.5104E-3   12.80     0.1837E-2   20.55     0.5104E-3   12.80   
 0.4505E-1  0.7657E-3   12.80     0.2755E-2   20.55     0.7657E-3   12.80   
 0.6006E-1  0.1021E-2   12.80     0.3674E-2   20.55     0.1021E-2   12.80   
 0.7508E-1  0.1276E-2   12.80     0.4593E-2   20.55     0.1276E-2   12.80   
 0.9009E-1  0.1532E-2   12.80     0.5512E-2   20.55     0.1532E-2   12.80   
 0.1051     0.1787E-2   12.80     0.6431E-2   20.55     0.1787E-2   12.80   
 0.1201     0.2042E-2   12.81     0.7351E-2   20.55     0.2042E-2   12.81   
 0.1351     0.2298E-2   12.81     0.8270E-2   20.55     0.2298E-2   12.81   
 0.1502     0.2553E-2   12.81     0.9191E-2   20.56     0.2553E-2   12.81   
 0.1652     0.2809E-2   12.81     0.1011E-1   20.56     0.2809E-2   12.81   
 0.1802     0.3064E-2   12.81     0.1103E-1   20.56     0.3064E-2   12.81   
 0.1952     0.3320E-2   12.81     0.1195E-1   20.56     0.3320E-2   12.81   
 0.2102     0.3576E-2   12.81     0.1288E-1   20.56     0.3576E-2   12.81   
 0.2252     0.3831E-2   12.81     0.1380E-1   20.56     0.3831E-2   12.81   
 0.2402     0.4087E-2   12.81     0.1472E-1   20.57     0.4087E-2   12.81   
 0.2553     0.4343E-2   12.81     0.1564E-1   20.57     0.4343E-2   12.81   
 0.2703     0.4599E-2   12.81     0.1657E-1   20.57     0.4599E-2   12.81   
 0.2853     0.4855E-2   12.81     0.1749E-1   20.57     0.4855E-2   12.81   
 0.3003     0.5112E-2   12.81     0.1842E-1   20.58     0.5112E-2   12.81   
 0.3153     0.5368E-2   12.81     0.1935E-1   20.58     0.5368E-2   12.81   
 0.3303     0.5624E-2   12.81     0.2027E-1   20.58     0.5624E-2   12.81   
 0.3453     0.5881E-2   12.81     0.2120E-1   20.59     0.5881E-2   12.81   
 0.3604     0.6138E-2   12.81     0.2213E-1   20.59     0.6138E-2   12.81   
 0.3754     0.6395E-2   12.82     0.2306E-1   20.59     0.6395E-2   12.82   
 0.3904     0.6652E-2   12.82     0.2399E-1   20.60     0.6652E-2   12.82   
 0.4054     0.6909E-2   12.82     0.2492E-1   20.60     0.6909E-2   12.82   
 0.4204     0.7166E-2   12.82     0.2585E-1   20.60     0.7166E-2   12.82   
 0.4354     0.7423E-2   12.82     0.2679E-1   20.61     0.7423E-2   12.82   
 0.4505     0.7681E-2   12.82     0.2772E-1   20.61     0.7681E-2   12.82   
 0.4655     0.7939E-2   12.82     0.2866E-1   20.62     0.7939E-2   12.82   
 0.4805     0.8197E-2   12.82     0.2960E-1   20.62     0.8197E-2   12.82   
 0.4955     0.8455E-2   12.82     0.3053E-1   20.62     0.8455E-2   12.82   
 0.5105     0.8713E-2   12.83     0.3147E-1   20.63     0.8713E-2   12.83   
 0.5255     0.8971E-2   12.83     0.3241E-1   20.63     0.8971E-2   12.83   
 0.5405     0.9230E-2   12.83     0.3336E-1   20.64     0.9230E-2   12.83   
 0.5556     0.9489E-2   12.83     0.3430E-1   20.64     0.9489E-2   12.83   
 0.5706     0.9748E-2   12.83     0.3525E-1   20.65     0.9748E-2   12.83   
 0.5856     0.1001E-1   12.83     0.3619E-1   20.65     0.1001E-1   12.83   
 0.6006     0.1027E-1   12.83     0.3714E-1   20.66     0.1027E-1   12.83   
 0.6156     0.1053E-1   12.84     0.3809E-1   20.67     0.1053E-1   12.84   
 0.6306     0.1079E-1   12.84     0.3904E-1   20.67     0.1079E-1   12.84   
 0.6456     0.1105E-1   12.84     0.3999E-1   20.68     0.1105E-1   12.84   
 0.6607     0.1131E-1   12.84     0.4095E-1   20.68     0.1131E-1   12.84   
 0.6757     0.1157E-1   12.84     0.4190E-1   20.69     0.1157E-1   12.84   
 0.6907     0.1183E-1   12.84     0.4286E-1   20.70     0.1183E-1   12.84   
 0.7057     0.1209E-1   12.85     0.4382E-1   20.70     0.1209E-1   12.85   
 0.7207     0.1235E-1   12.85     0.4478E-1   20.71     0.1235E-1   12.85   
 0.7357     0.1261E-1   12.85     0.4575E-1   20.72     0.1261E-1   12.85   
 0.7508     0.1287E-1   12.85     0.4671E-1   20.72     0.1287E-1   12.85   
 0.7658     0.1314E-1   12.85     0.4768E-1   20.73     0.1314E-1   12.85   
 0.7808     0.1340E-1   12.86     0.4865E-1   20.74     0.1340E-1   12.86   
 0.7958     0.1366E-1   12.86     0.4962E-1   20.74     0.1366E-1   12.86   
 0.8108     0.1392E-1   12.86     0.5059E-1   20.75     0.1392E-1   12.86   
 0.8258     0.1419E-1   12.86     0.5157E-1   20.76     0.1419E-1   12.86   
 0.8408     0.1445E-1   12.86     0.5255E-1   20.77     0.1445E-1   12.86   
 0.8559     0.1472E-1   12.87     0.5353E-1   20.78     0.1472E-1   12.87   
 0.8709     0.1498E-1   12.87     0.5451E-1   20.78     0.1498E-1   12.87   
 0.8859     0.1524E-1   12.87     0.5549E-1   20.79     0.1524E-1   12.87   
 0.9009     0.1551E-1   12.87     0.5648E-1   20.80     0.1551E-1   12.87   
 0.9159     0.1577E-1   12.88     0.5747E-1   20.81     0.1577E-1   12.88   
 0.9309     0.1604E-1   12.88     0.5846E-1   20.82     0.1604E-1   12.88   
 0.9459     0.1631E-1   12.88     0.5946E-1   20.83     0.1631E-1   12.88   
 0.9610     0.1657E-1   12.88     0.6045E-1   20.84     0.1657E-1   12.88   
 0.9760     0.1684E-1   12.89     0.6145E-1   20.84     0.1684E-1   12.89   
 0.9910     0.1711E-1   12.89     0.6245E-1   20.85     0.1711E-1   12.89   
  1.006     0.1737E-1   12.89     0.6346E-1   20.86     0.1737E-1   12.89   
  1.021     0.1764E-1   12.89     0.6447E-1   20.87     0.1764E-1   12.89   
  1.036     0.1791E-1   12.90     0.6548E-1   20.88     0.1791E-1   12.90   
  1.051     0.1818E-1   12.90     0.6649E-1   20.89     0.1818E-1   12.90   
  1.066     0.1845E-1   12.90     0.6750E-1   20.90     0.1845E-1   12.90   
  1.081     0.1872E-1   12.90     0.6852E-1   20.91     0.1872E-1   12.90   
  1.096     0.1899E-1   12.91     0.6955E-1   20.92     0.1899E-1   12.91   
  1.111     0.1926E-1   12.91     0.7057E-1   20.93     0.1926E-1   12.91   
  1.126     0.1953E-1   12.91     0.7160E-1   20.94     0.1953E-1   12.91   
  1.141     0.1980E-1   12.92     0.7263E-1   20.96     0.1980E-1   12.92   
  1.156     0.2007E-1   12.92     0.7366E-1   20.97     0.2007E-1   12.92   
  1.171     0.2034E-1   12.92     0.7470E-1   20.98     0.2034E-1   12.92   
  1.186     0.2061E-1   12.92     0.7574E-1   20.99     0.2061E-1   12.92   
  1.201     0.2089E-1   12.93     0.7678E-1   21.00     0.2089E-1   12.93   
   1.21622    0.02116   12.93111    0.07783   21.01180    0.02116   12.93111
   1.23123    0.02143   12.93430    0.07888   21.02351    0.02143   12.93430
   1.24625    0.02171   12.93756    0.07993   21.03544    0.02171   12.93756
   1.26126    0.02198   12.94090    0.08099   21.04760    0.02198   12.94090
   1.27628    0.02226   12.94423    0.08205   21.05975    0.02226   12.94423
   1.29129    0.02253   12.94757    0.08312   21.07205    0.02253   12.94757
   1.30631    0.02281   12.95090    0.08419   21.08465    0.02281   12.95090
   1.32132    0.02309   12.95438    0.08526   21.09740    0.02309   12.95438
   1.33634    0.02336   12.95787    0.08633   21.11029    0.02336   12.95787
   1.35135    0.02364   12.96135    0.08741   21.12334    0.02364   12.96135
   1.36637    0.02392   12.96498    0.08850   21.13653    0.02392   12.96498
   1.38138    0.02420   12.96861    0.08958   21.14987    0.02420   12.96861
   1.39640    0.02448   12.97225    0.09067   21.16343    0.02448   12.97225
   1.41141    0.02476   12.97588    0.09177   21.17707    0.02476   12.97588
   1.42643    0.02504   12.97966    0.09287   21.19093    0.02504   12.97966
   1.44144    0.02532   12.98336    0.09397   21.20501    0.02532   12.98336
   1.45646    0.02560   12.98714    0.09508   21.21916    0.02560   12.98714
   1.47147    0.02588   12.99107    0.09619   21.23347    0.02588   12.99107
   1.48649    0.02617   12.99500    0.09731   21.24800    0.02617   12.99500
   1.50150    0.02645   12.99893    0.09843   21.26274    0.02645   12.99893
   1.51652    0.02673   13.00300    0.09956   21.27757    0.02673   13.00300
   1.53153    0.02702   13.00693    0.10069   21.29261    0.02702   13.00693
   1.54655    0.02730   13.01108    0.10182   21.30780    0.02730   13.01108
   1.56156    0.02759   13.01516    0.10296   21.32314    0.02759   13.01516
   1.57658    0.02787   13.01938    0.10410   21.33863    0.02787   13.01938
   1.59159    0.02816   13.02361    0.10525   21.35435    0.02816   13.02361
   1.60661    0.02845   13.02783    0.10640   21.37021    0.02845   13.02783
   1.62162    0.02874   13.03198    0.10756   21.38629    0.02874   13.03198
   1.63664    0.02903   13.03635    0.10873   21.40259    0.02903   13.03635
   1.65165    0.02932   13.04072    0.10989   21.41890    0.02932   13.04072
   1.66667    0.02961   13.04525    0.11107   21.43550    0.02961   13.04525
   1.68168    0.02990   13.04969    0.11225   21.45225    0.02990   13.04969
   1.69670    0.03019   13.05421    0.11343   21.46915    0.03019   13.05421
   1.71171    0.03048   13.05873    0.11462   21.48634    0.03048   13.05873
   1.72673    0.03077   13.06333    0.11581   21.50353    0.03077   13.06333
   1.74174    0.03107   13.06800    0.11701   21.52095    0.03107   13.06800
   1.75676    0.03136   13.07267    0.11822   21.53874    0.03136   13.07267
   1.77177    0.03166   13.07741    0.11943   21.55645    0.03166   13.07741
   1.78679    0.03195   13.08223    0.12065   21.57453    0.03195   13.08223
   1.80180    0.03225   13.08704    0.12187   21.59269    0.03225   13.08704
   1.81682    0.03255   13.09179    0.12310   21.61115    0.03255   13.09179
   1.83183    0.03284   13.09675    0.12433   21.62960    0.03284   13.09675
   1.84685    0.03314   13.10164    0.12557   21.64835    0.03314   13.10164
   1.86186    0.03344   13.10676    0.12682   21.66740    0.03344   13.10676
   1.87688    0.03374   13.11172    0.12807   21.68644    0.03374   13.11172
   1.89189    0.03404   13.11676    0.12933   21.70571    0.03404   13.11676
   1.90691    0.03435   13.12203    0.13059   21.72535    0.03435   13.12203
   1.92192    0.03465   13.12721    0.13186   21.74492    0.03465   13.12721
   1.93694    0.03495   13.13248    0.13314   21.76485    0.03495   13.13248
   1.95195    0.03526   13.13766    0.13442   21.78486    0.03526   13.13766
   1.96697    0.03556   13.14285    0.13571   21.80517    0.03556   13.14285
   1.98198    0.03587   13.14826    0.13701   21.82563    0.03587   13.14826
   1.99700    0.03618   13.15375    0.13831   21.84623    0.03618   13.15375
   2.01201    0.03648   13.15916    0.13962   21.86713    0.03648   13.15916
   2.02703    0.03679   13.16464    0.14094   21.88818    0.03679   13.16464
   2.04204    0.03710   13.17020    0.14226   21.90945    0.03710   13.17020
   2.05706    0.03741   13.17583    0.14359   21.93094    0.03741   13.17583
   2.07207    0.03772   13.18146    0.14493   21.95251    0.03772   13.18146
   2.08709    0.03804   13.18717    0.14628   21.97444    0.03804   13.18717
   2.10210    0.03835   13.19280    0.14763   21.99645    0.03835   13.19280
   2.11712    0.03866   13.19858    0.14899   22.01861    0.03866   13.19858
   2.13213    0.03898   13.20444    0.15036   22.04107    0.03898   13.20444
   2.14715    0.03929   13.21037    0.15173   22.06382    0.03929   13.21037
   2.16216    0.03961   13.21630    0.15311   22.08672    0.03961   13.21630
   2.17718    0.03993   13.22223    0.15450   22.10970    0.03993   13.22223
   2.19219    0.04025   13.22823    0.15590   22.13304    0.04025   13.22823
   2.20721    0.04057   13.23431    0.15731   22.15646    0.04057   13.23431
   2.22222    0.04089   13.24038    0.15872   22.18018    0.04089   13.24038
   2.23724    0.04121   13.24661    0.16015   22.20427    0.04121   13.24661
   2.25225    0.04153   13.25284    0.16158   22.22828    0.04153   13.25284
   2.26727    0.04186   13.25913    0.16302   22.25266    0.04186   13.25913
   2.28228    0.04218   13.26536    0.16446   22.27712    0.04218   13.26536
   2.29730    0.04251   13.27173    0.16592   22.30202    0.04251   13.27173
   2.31231    0.04283   13.27811    0.16739   22.32707    0.04283   13.27811
   2.32733    0.04316   13.28463    0.16886   22.35219    0.04316   13.28463
   2.34234    0.04349   13.29100    0.17034   22.37761    0.04349   13.29100
   2.35736    0.04382   13.29767    0.17183   22.40333    0.04382   13.29767
   2.37237    0.04415   13.30419    0.17333   22.42927    0.04415   13.30419
   2.38739    0.04448   13.31086    0.17484   22.45536    0.04448   13.31086
   2.40240    0.04482   13.31761    0.17636   22.48167    0.04482   13.31761
   2.41742    0.04515   13.32443    0.17789   22.50827    0.04515   13.32443
   2.43243    0.04549   13.33125    0.17943   22.53510    0.04549   13.33125
   2.44745    0.04582   13.33806    0.18098   22.56215    0.04582   13.33806
   2.46246    0.04616   13.34488    0.18253   22.58943    0.04616   13.34488
   2.47748    0.04650   13.35177    0.18410   22.61685    0.04650   13.35177
   2.49249    0.04684   13.35889    0.18568   22.64457    0.04684   13.35889
   2.50751    0.04718   13.36586    0.18727   22.67258    0.04718   13.36586
   2.52252    0.04752   13.37297    0.18886   22.70074    0.04752   13.37297
   2.53754    0.04787   13.38023    0.19047   22.72928    0.04787   13.38023
   2.55255    0.04821   13.38735    0.19209   22.75803    0.04821   13.38735
   2.56757    0.04856   13.39461    0.19372   22.78686    0.04856   13.39461
   2.58258    0.04891   13.40202    0.19536   22.81599    0.04891   13.40202
   2.59760    0.04925   13.40936    0.19701   22.84556    0.04925   13.40936
   2.61261    0.04960   13.41677    0.19867   22.87513    0.04960   13.41677
   2.62763    0.04996   13.42418    0.20035   22.90515    0.04996   13.42418
   2.64264    0.05031   13.43174    0.20203   22.93524    0.05031   13.43174
   2.65766    0.05066   13.43930    0.20373   22.96569    0.05066   13.43930
   2.67267    0.05102   13.44693    0.20544   22.99638    0.05102   13.44693
   2.68769    0.05137   13.45464    0.20715   23.02736    0.05137   13.45464
   2.70270    0.05173   13.46235    0.20889   23.05863    0.05173   13.46235
   2.71772    0.05209   13.47013    0.21063   23.09006    0.05209   13.47013
   2.73273    0.05245   13.47799    0.21238   23.12178    0.05245   13.47799
   2.74775    0.05281   13.48599    0.21415   23.15372    0.05281   13.48599
   2.76276    0.05318   13.49377    0.21593   23.18596    0.05318   13.49377
   2.77778    0.05354   13.50193    0.21772   23.21857    0.05354   13.50193
   2.79279    0.05391   13.50993    0.21953   23.25133    0.05391   13.50993
   2.80781    0.05427   13.51801    0.22135   23.28445    0.05427   13.51801
   2.82282    0.05464   13.52631    0.22318   23.31773    0.05464   13.52631
   2.83784    0.05501   13.53439    0.22503   23.35138    0.05501   13.53439
   2.85285    0.05539   13.54284    0.22688   23.38524    0.05539   13.54284
   2.86787    0.05576   13.55106    0.22875   23.41949    0.05576   13.55106
   2.88288    0.05613   13.55951    0.23064   23.45387    0.05613   13.55951
   2.89790    0.05651   13.56789    0.23254   23.48871    0.05651   13.56789
   2.91291    0.05689   13.57648    0.23445   23.52361    0.05689   13.57648
   2.92793    0.05727   13.58501    0.23638   23.55904    0.05727   13.58501
   2.94294    0.05765   13.59360    0.23832   23.59469    0.05765   13.59360
   2.95796    0.05803   13.60227    0.24028   23.63048    0.05803   13.60227
   2.97297    0.05841   13.61109    0.24225   23.66672    0.05841   13.61109
   2.98799    0.05880   13.61984    0.24424   23.70326    0.05880   13.61984
   3.00300    0.05919   13.62866    0.24624   23.74002    0.05919   13.62866
   3.01802    0.05958   13.63763    0.24826   23.77708    0.05958   13.63763
   3.03303    0.05997   13.64667    0.25029   23.81443    0.05997   13.64667
   3.04805    0.06036   13.65563    0.25234   23.85208    0.06036   13.65563
   3.06306    0.06075   13.66475    0.25440   23.89017    0.06075   13.66475
   3.07808    0.06115   13.67387    0.25649   23.92856    0.06115   13.67387
   3.09309    0.06154   13.68306    0.25858   23.96717    0.06154   13.68306
   3.10811    0.06194   13.69232    0.26070   24.00608    0.06194   13.69232
   3.12312    0.06234   13.70173    0.26283   24.04529    0.06234   13.70173
   3.13814    0.06275   13.71100    0.26498   24.08494    0.06275   13.71100
   3.15315    0.06315   13.72041    0.26714   24.12481    0.06315   13.72041
   3.16817    0.06356   13.72997    0.26932   24.16505    0.06356   13.72997
   3.18318    0.06396   13.73960    0.27152   24.20567    0.06396   13.73960
   3.19820    0.06437   13.74916    0.27374   24.24650    0.06437   13.74916
   3.21321    0.06478   13.75887    0.27598   24.28771    0.06478   13.75887
   3.22823    0.06520   13.76873    0.27823   24.32929    0.06520   13.76873
   3.24324    0.06561   13.77844    0.28051   24.37123    0.06561   13.77844
   3.25826    0.06603   13.78830    0.28280   24.41355    0.06603   13.78830
   3.27327    0.06645   13.79830    0.28511   24.45609    0.06645   13.79830
   3.28829    0.06687   13.80831    0.28744   24.49900    0.06687   13.80831
   3.30330    0.06729   13.81846    0.28979   24.54229    0.06729   13.81846
   3.31832    0.06772   13.82846    0.29216   24.58587    0.06772   13.82846
   3.33333    0.06814   13.83869    0.29455   24.62989    0.06814   13.83869
   3.34835    0.06857   13.84899    0.29696   24.67443    0.06857   13.84899
   3.36336    0.06900   13.85929    0.29939   24.71919    0.06900   13.85929
   3.37838    0.06943   13.86960    0.30185   24.76433    0.06943   13.86960
   3.39339    0.06987   13.88020    0.30432   24.80976    0.06987   13.88020
   3.40841    0.07031   13.89065    0.30682   24.85556    0.07031   13.89065
   3.42342    0.07074   13.90117    0.30933   24.90166    0.07074   13.90117
   3.43844    0.07119   13.91191    0.31187   24.94835    0.07119   13.91191
   3.45345    0.07163   13.92266    0.31443   24.99533    0.07163   13.92266
   3.46847    0.07207   13.93333    0.31702   25.04262    0.07207   13.93333
   3.48348    0.07252   13.94423    0.31962   25.09042    0.07252   13.94423
   3.49850    0.07297   13.95512    0.32226   25.13852    0.07297   13.95512
   3.51351    0.07342   13.96609    0.32491   25.18699    0.07342   13.96609
   3.52853    0.07388   13.97713    0.32759   25.23598    0.07388   13.97713
