#                                                           
#   __   __     _        __  __       ____      U  ___  u   
#   \ \ / / U  /"\  U u |" \/ "| u U | __") u    \/"_ \/    
#    \ V /   \/ _ \/   \| |\/| |/   \|  _ \/     | | | |    
#   U_|"|_u  / ___ \    | |  | |     | |_) | .-,_| |_| |    
#     |_|   /_/   \_\   |_|  |_|     |____/   \_)-\___/     
# .-,//|(_   \\    >>  <<,-,,-.     _|| \\_        \\       
#  \_) (__) (__)  (__)  (./  \.)   (__) (__)      (__)      
#                                                           
#                                                           
#        Version 4.3.0 Revision 15624 Hash 7ed12fb          
#                      MPI+SLK Build                        
#                http://www.yambo-code.org                  
#
# Joint density of states @ Q(1) [q->0 direction] :0.1000E-4  0.000     0.000   
#
# - Energies      are  Analyt. E
# - The Green`s function is Retarded -
#
#   BSK|Identifier              :3973
#      |Dimension               :49
#      |Bands                   :1 - 50
#      |Exchange           [res]: yes
#      |Correlation        [res]: no
#      |Kernel`s coupling       : no
#      |Exchange           [cpl]: no
#      |Correlation        [cpl]: no
#      |W interaction is bare   : no
#      |ALDA kernel in R-space  : no
#      |RL vectors    [exchange]:4067
#      |E/h energy range    [ev]:-1.000000 - -1.000000
#      |Coupling range     [o/o]: 100.0000 -  100.0000
#
#    E/ev[1]      jdos-Im[2]   jdos-Re[3]   jdoso-Im[4]  jdoso-Re[5]  jdos`-Im[6]  jdos`-Re[7]
#
    0.000000     0.000000     0.764741     0.000000     0.771649
   0.2002E-1    0.4812E-5    0.7647       0.4948E-5    0.7716   
   0.4004E-1    0.9624E-5    0.7647       0.9896E-5    0.7717   
   0.6006E-1    0.1444E-4    0.7647       0.1484E-4    0.7717   
   0.8008E-1    0.1925E-4    0.7647       0.1979E-4    0.7717   
   0.1001       0.2406E-4    0.7648       0.2474E-4    0.7717   
   0.1201       0.2887E-4    0.7648       0.2969E-4    0.7717   
   0.1401       0.3369E-4    0.7648       0.3464E-4    0.7717   
   0.1602       0.3850E-4    0.7648       0.3959E-4    0.7717   
   0.1802       0.4331E-4    0.7648       0.4454E-4    0.7717   
   0.2002       0.4813E-4    0.7648       0.4949E-4    0.7717   
   0.2202       0.5294E-4    0.7648       0.5444E-4    0.7717   
   0.2402       0.5776E-4    0.7648       0.5939E-4    0.7717   
   0.2603       0.6257E-4    0.7648       0.6434E-4    0.7717   
   0.2803       0.6739E-4    0.7648       0.6929E-4    0.7717   
   0.3003       0.7220E-4    0.7648       0.7425E-4    0.7718   
   0.3203       0.7702E-4    0.7649       0.7920E-4    0.7718   
   0.3403       0.8184E-4    0.7649       0.8415E-4    0.7718   
   0.3604       0.8666E-4    0.7649       0.8911E-4    0.7718   
   0.3804       0.9148E-4    0.7649       0.9406E-4    0.7718   
   0.4004       0.9629E-4    0.7649       0.9902E-4    0.7718   
   0.4204       0.1011E-3    0.7650       0.1040E-3    0.7719   
   0.4404       0.1059E-3    0.7650       0.1089E-3    0.7719   
   0.4605       0.1108E-3    0.7650       0.1139E-3    0.7719   
   0.4805       0.1156E-3    0.7650       0.1189E-3    0.7719   
   0.5005       0.1204E-3    0.7650       0.1238E-3    0.7720   
   0.5205       0.1252E-3    0.7651       0.1288E-3    0.7720   
   0.5405       0.1301E-3    0.7651       0.1337E-3    0.7720   
   0.5606       0.1349E-3    0.7651       0.1387E-3    0.7720   
   0.5806       0.1397E-3    0.7651       0.1437E-3    0.7721   
   0.6006       0.1445E-3    0.7652       0.1486E-3    0.7721   
   0.6206       0.1494E-3    0.7652       0.1536E-3    0.7721   
   0.6406       0.1542E-3    0.7652       0.1586E-3    0.7722   
   0.6607       0.1590E-3    0.7653       0.1635E-3    0.7722   
   0.6807       0.1639E-3    0.7653       0.1685E-3    0.7722   
   0.7007       0.1687E-3    0.7653       0.1735E-3    0.7723   
   0.7207       0.1735E-3    0.7654       0.1785E-3    0.7723   
   0.7407       0.1784E-3    0.7654       0.1834E-3    0.7723   
   0.7608       0.1832E-3    0.7654       0.1884E-3    0.7724   
   0.7808       0.1881E-3    0.7655       0.1934E-3    0.7724   
   0.8008       0.1929E-3    0.7655       0.1984E-3    0.7724   
   0.8208       0.1977E-3    0.7656       0.2034E-3    0.7725   
   0.8408       0.2026E-3    0.7656       0.2083E-3    0.7725   
   0.8609       0.2074E-3    0.7656       0.2133E-3    0.7726   
   0.8809       0.2123E-3    0.7657       0.2183E-3    0.7726   
   0.9009       0.2171E-3    0.7657       0.2233E-3    0.7727   
   0.9209       0.2220E-3    0.7658       0.2283E-3    0.7727   
   0.9409       0.2269E-3    0.7658       0.2333E-3    0.7727   
   0.9610       0.2317E-3    0.7659       0.2383E-3    0.7728   
   0.9810       0.2366E-3    0.7659       0.2433E-3    0.7728   
    1.001       0.2414E-3    0.7659       0.2483E-3    0.7729   
    1.021       0.2463E-3    0.7660       0.2533E-3    0.7729   
    1.041       0.2512E-3    0.7660       0.2583E-3    0.7730   
    1.061       0.2560E-3    0.7661       0.2633E-3    0.7730   
    1.081       0.2609E-3    0.7661       0.2683E-3    0.7731   
    1.101       0.2658E-3    0.7662       0.2733E-3    0.7732   
    1.121       0.2706E-3    0.7663       0.2783E-3    0.7732   
    1.141       0.2755E-3    0.7663       0.2833E-3    0.7733   
    1.161       0.2804E-3    0.7664       0.2883E-3    0.7733   
    1.181       0.2853E-3    0.7664       0.2934E-3    0.7734   
    1.201       0.2901E-3    0.7665       0.2984E-3    0.7734   
    1.221       0.2950E-3    0.7665       0.3034E-3    0.7735   
    1.241       0.2999E-3    0.7666       0.3084E-3    0.7736   
    1.261       0.3048E-3    0.7667       0.3135E-3    0.7736   
    1.281       0.3097E-3    0.7667       0.3185E-3    0.7737   
    1.301       0.3146E-3    0.7668       0.3235E-3    0.7737   
    1.321       0.3195E-3    0.7668       0.3286E-3    0.7738   
    1.341       0.3244E-3    0.7669       0.3336E-3    0.7739   
    1.361       0.3293E-3    0.7670       0.3386E-3    0.7739   
    1.381       0.3342E-3    0.7670       0.3437E-3    0.7740   
    1.401       0.3391E-3    0.7671       0.3487E-3    0.7741   
    1.421       0.3440E-3    0.7672       0.3538E-3    0.7742   
    1.441       0.3489E-3    0.7672       0.3588E-3    0.7742   
    1.461       0.3538E-3    0.7673       0.3639E-3    0.7743   
    1.481       0.3588E-3    0.7674       0.3690E-3    0.7744   
    1.502       0.3637E-3    0.7675       0.3740E-3    0.7744   
    1.522       0.3686E-3    0.7675       0.3791E-3    0.7745   
    1.542       0.3735E-3    0.7676       0.3842E-3    0.7746   
    1.562       0.3785E-3    0.7677       0.3892E-3    0.7747   
    1.582       0.3834E-3    0.7678       0.3943E-3    0.7748   
    1.602       0.3883E-3    0.7678       0.3994E-3    0.7748   
    1.622       0.3933E-3    0.7679       0.4045E-3    0.7749   
    1.642       0.3982E-3    0.7680       0.4096E-3    0.7750   
    1.662       0.4032E-3    0.7681       0.4147E-3    0.7751   
    1.682       0.4081E-3    0.7682       0.4198E-3    0.7752   
    1.702       0.4131E-3    0.7682       0.4248E-3    0.7752   
    1.722       0.4180E-3    0.7683       0.4300E-3    0.7753   
    1.742       0.4230E-3    0.7684       0.4351E-3    0.7754   
    1.762       0.4280E-3    0.7685       0.4402E-3    0.7755   
    1.782       0.4329E-3    0.7686       0.4453E-3    0.7756   
    1.802       0.4379E-3    0.7687       0.4504E-3    0.7757   
    1.822       0.4429E-3    0.7688       0.4555E-3    0.7758   
    1.842       0.4479E-3    0.7688       0.4606E-3    0.7759   
    1.862       0.4528E-3    0.7689       0.4658E-3    0.7760   
    1.882       0.4578E-3    0.7690       0.4709E-3    0.7761   
    1.902       0.4628E-3    0.7691       0.4760E-3    0.7761   
    1.922       0.4678E-3    0.7692       0.4812E-3    0.7762   
    1.942       0.4728E-3    0.7693       0.4863E-3    0.7763   
    1.962       0.4778E-3    0.7694       0.4915E-3    0.7764   
    1.982       0.4828E-3    0.7695       0.4966E-3    0.7765   
    2.002       0.4878E-3    0.7696       0.5018E-3    0.7766   
    2.022       0.4928E-3    0.7697       0.5069E-3    0.7767   
    2.042       0.4979E-3    0.7698       0.5121E-3    0.7768   
    2.062       0.5029E-3    0.7699       0.5173E-3    0.7769   
    2.082       0.5079E-3    0.7700       0.5224E-3    0.7770   
    2.102       0.5129E-3    0.7701       0.5276E-3    0.7772   
    2.122       0.5180E-3    0.7702       0.5328E-3    0.7773   
    2.142       0.5230E-3    0.7703       0.5380E-3    0.7774   
    2.162       0.5281E-3    0.7704       0.5432E-3    0.7775   
    2.182       0.5331E-3    0.7705       0.5484E-3    0.7776   
    2.202       0.5382E-3    0.7706       0.5536E-3    0.7777   
    2.222       0.5432E-3    0.7707       0.5588E-3    0.7778   
    2.242       0.5483E-3    0.7708       0.5640E-3    0.7779   
    2.262       0.5534E-3    0.7709       0.5692E-3    0.7780   
    2.282       0.5584E-3    0.7711       0.5744E-3    0.7781   
    2.302       0.5635E-3    0.7712       0.5796E-3    0.7783   
    2.322       0.5686E-3    0.7713       0.5849E-3    0.7784   
    2.342       0.5737E-3    0.7714       0.5901E-3    0.7785   
    2.362       0.5788E-3    0.7715       0.5954E-3    0.7786   
    2.382       0.5838E-3    0.7716       0.6006E-3    0.7787   
    2.402       0.5889E-3    0.7717       0.6058E-3    0.7789   
    2.422       0.5941E-3    0.7719       0.6111E-3    0.7790   
    2.442       0.5992E-3    0.7720       0.6164E-3    0.7791   
    2.462       0.6043E-3    0.7721       0.6216E-3    0.7792   
    2.482       0.6094E-3    0.7722       0.6269E-3    0.7793   
    2.503       0.6145E-3    0.7723       0.6322E-3    0.7795   
    2.523       0.6197E-3    0.7725       0.6375E-3    0.7796   
    2.543       0.6248E-3    0.7726       0.6428E-3    0.7797   
    2.563       0.6299E-3    0.7727       0.6480E-3    0.7799   
    2.583       0.6351E-3    0.7728       0.6533E-3    0.7800   
    2.603       0.6402E-3    0.7730       0.6587E-3    0.7801   
    2.623       0.6454E-3    0.7731       0.6640E-3    0.7803   
    2.643       0.6506E-3    0.7732       0.6693E-3    0.7804   
    2.663       0.6557E-3    0.7734       0.6746E-3    0.7805   
    2.683       0.6609E-3    0.7735       0.6799E-3    0.7807   
    2.703       0.6661E-3    0.7736       0.6853E-3    0.7808   
    2.723       0.6713E-3    0.7738       0.6906E-3    0.7809   
    2.743       0.6764E-3    0.7739       0.6959E-3    0.7811   
    2.763       0.6816E-3    0.7740       0.7013E-3    0.7812   
    2.783       0.6868E-3    0.7742       0.7067E-3    0.7813   
    2.803       0.6921E-3    0.7743       0.7120E-3    0.7815   
    2.823       0.6973E-3    0.7744       0.7174E-3    0.7816   
    2.843       0.7025E-3    0.7746       0.7228E-3    0.7818   
    2.863       0.7077E-3    0.7747       0.7282E-3    0.7819   
    2.883       0.7129E-3    0.7749       0.7335E-3    0.7821   
    2.903       0.7182E-3    0.7750       0.7389E-3    0.7822   
    2.923       0.7234E-3    0.7752       0.7443E-3    0.7824   
    2.943       0.7287E-3    0.7753       0.7497E-3    0.7825   
    2.963       0.7339E-3    0.7755       0.7552E-3    0.7827   
    2.983       0.7392E-3    0.7756       0.7606E-3    0.7828   
    3.003       0.7445E-3    0.7757       0.7660E-3    0.7830   
    3.023       0.7497E-3    0.7759       0.7715E-3    0.7831   
    3.043       0.7550E-3    0.7760       0.7769E-3    0.7833   
    3.063       0.7603E-3    0.7762       0.7823E-3    0.7834   
    3.083       0.7656E-3    0.7764       0.7878E-3    0.7836   
    3.103       0.7709E-3    0.7765       0.7933E-3    0.7838   
    3.123       0.7762E-3    0.7767       0.7987E-3    0.7839   
    3.143       0.7815E-3    0.7768       0.8042E-3    0.7841   
    3.163       0.7869E-3    0.7770       0.8097E-3    0.7842   
    3.183       0.7922E-3    0.7771       0.8152E-3    0.7844   
    3.203       0.7975E-3    0.7773       0.8207E-3    0.7846   
    3.223       0.8029E-3    0.7775       0.8262E-3    0.7847   
    3.243       0.8082E-3    0.7776       0.8317E-3    0.7849   
    3.263       0.8136E-3    0.7778       0.8372E-3    0.7851   
    3.283       0.8189E-3    0.7779       0.8427E-3    0.7852   
    3.303       0.8243E-3    0.7781       0.8483E-3    0.7854   
    3.323       0.8297E-3    0.7783       0.8538E-3    0.7856   
    3.343       0.8351E-3    0.7784       0.8594E-3    0.7857   
    3.363       0.8405E-3    0.7786       0.8649E-3    0.7859   
    3.383       0.8459E-3    0.7788       0.8705E-3    0.7861   
    3.403       0.8513E-3    0.7789       0.8761E-3    0.7863   
    3.423       0.8567E-3    0.7791       0.8817E-3    0.7864   
    3.443       0.8621E-3    0.7793       0.8872E-3    0.7866   
    3.463       0.8675E-3    0.7795       0.8928E-3    0.7868   
    3.483       0.8730E-3    0.7796       0.8984E-3    0.7870   
    3.504       0.8784E-3    0.7798       0.9041E-3    0.7871   
    3.524       0.8839E-3    0.7800       0.9097E-3    0.7873   
    3.544       0.8893E-3    0.7802       0.9153E-3    0.7875   
    3.564       0.8948E-3    0.7803       0.9209E-3    0.7877   
    3.584       0.9003E-3    0.7805       0.9266E-3    0.7879   
    3.604       0.9058E-3    0.7807       0.9322E-3    0.7881   
    3.624       0.9113E-3    0.7809       0.9379E-3    0.7883   
    3.644       0.9168E-3    0.7811       0.9436E-3    0.7884   
    3.664       0.9223E-3    0.7812       0.9493E-3    0.7886   
    3.684       0.9278E-3    0.7814       0.9549E-3    0.7888   
    3.704       0.9333E-3    0.7816       0.9606E-3    0.7890   
    3.724       0.9388E-3    0.7818       0.9664E-3    0.7892   
    3.744       0.9444E-3    0.7820       0.9721E-3    0.7894   
    3.764       0.9499E-3    0.7822       0.9778E-3    0.7896   
    3.784       0.9555E-3    0.7824       0.9835E-3    0.7898   
    3.804       0.9611E-3    0.7826       0.9893E-3    0.7900   
    3.824       0.9666E-3    0.7828       0.9950E-3    0.7902   
    3.844       0.9722E-3    0.7830       0.1001E-2    0.7904   
    3.864       0.9778E-3    0.7831       0.1007E-2    0.7906   
    3.884       0.9834E-3    0.7833       0.1012E-2    0.7908   
    3.904       0.9890E-3    0.7835       0.1018E-2    0.7910   
    3.924       0.9946E-3    0.7837       0.1024E-2    0.7912   
    3.944       0.1000E-2    0.7839       0.1030E-2    0.7914   
    3.964       0.1006E-2    0.7841       0.1036E-2    0.7916   
    3.984       0.1012E-2    0.7843       0.1041E-2    0.7918   
    4.004       0.1017E-2    0.7845       0.1047E-2    0.7920   
    4.024       0.1023E-2    0.7848       0.1053E-2    0.7922   
    4.044       0.1029E-2    0.7850       0.1059E-2    0.7924   
    4.064       0.1034E-2    0.7852       0.1065E-2    0.7927   
    4.084       0.1040E-2    0.7854       0.1071E-2    0.7929   
    4.104       0.1046E-2    0.7856       0.1076E-2    0.7931   
    4.124       0.1051E-2    0.7858       0.1082E-2    0.7933   
    4.144       0.1057E-2    0.7860       0.1088E-2    0.7935   
    4.164       0.1063E-2    0.7862       0.1094E-2    0.7937   
    4.184       0.1068E-2    0.7864       0.1100E-2    0.7940   
    4.204       0.1074E-2    0.7866       0.1106E-2    0.7942   
    4.224       0.1080E-2    0.7869       0.1112E-2    0.7944   
    4.244       0.1086E-2    0.7871       0.1118E-2    0.7946   
    4.264       0.1092E-2    0.7873       0.1124E-2    0.7949   
    4.284       0.1097E-2    0.7875       0.1130E-2    0.7951   
    4.304       0.1103E-2    0.7877       0.1136E-2    0.7953   
    4.324       0.1109E-2    0.7880       0.1142E-2    0.7955   
    4.344       0.1115E-2    0.7882       0.1148E-2    0.7958   
    4.364       0.1121E-2    0.7884       0.1154E-2    0.7960   
    4.384       0.1126E-2    0.7886       0.1160E-2    0.7962   
    4.404       0.1132E-2    0.7888       0.1166E-2    0.7965   
    4.424       0.1138E-2    0.7891       0.1172E-2    0.7967   
    4.444       0.1144E-2    0.7893       0.1178E-2    0.7969   
    4.464       0.1150E-2    0.7895       0.1184E-2    0.7972   
    4.484       0.1156E-2    0.7898       0.1190E-2    0.7974   
    4.505       0.1162E-2    0.7900       0.1196E-2    0.7976   
    4.525       0.1168E-2    0.7902       0.1202E-2    0.7979   
    4.545       0.1174E-2    0.7905       0.1209E-2    0.7981   
    4.565       0.1179E-2    0.7907       0.1215E-2    0.7984   
    4.585       0.1185E-2    0.7909       0.1221E-2    0.7986   
    4.605       0.1191E-2    0.7912       0.1227E-2    0.7989   
    4.625       0.1197E-2    0.7914       0.1233E-2    0.7991   
    4.645       0.1203E-2    0.7917       0.1239E-2    0.7993   
    4.665       0.1209E-2    0.7919       0.1245E-2    0.7996   
    4.685       0.1215E-2    0.7921       0.1252E-2    0.7998   
    4.705       0.1221E-2    0.7924       0.1258E-2    0.8001   
    4.725       0.1227E-2    0.7926       0.1264E-2    0.8003   
    4.745       0.1233E-2    0.7929       0.1270E-2    0.8006   
    4.765       0.1239E-2    0.7931       0.1277E-2    0.8009   
    4.785       0.1245E-2    0.7934       0.1283E-2    0.8011   
    4.805       0.1251E-2    0.7936       0.1289E-2    0.8014   
    4.825       0.1258E-2    0.7939       0.1295E-2    0.8016   
    4.845       0.1264E-2    0.7941       0.1302E-2    0.8019   
    4.865       0.1270E-2    0.7944       0.1308E-2    0.8021   
    4.885       0.1276E-2    0.7946       0.1314E-2    0.8024   
    4.905       0.1282E-2    0.7949       0.1321E-2    0.8027   
    4.925       0.1288E-2    0.7951       0.1327E-2    0.8029   
    4.945       0.1294E-2    0.7954       0.1333E-2    0.8032   
    4.965       0.1300E-2    0.7957       0.1340E-2    0.8035   
    4.985       0.1307E-2    0.7959       0.1346E-2    0.8037   
    5.005       0.1313E-2    0.7962       0.1352E-2    0.8040   
    5.025       0.1319E-2    0.7964       0.1359E-2    0.8043   
    5.045       0.1325E-2    0.7967       0.1365E-2    0.8046   
    5.065       0.1331E-2    0.7970       0.1372E-2    0.8048   
    5.085       0.1338E-2    0.7972       0.1378E-2    0.8051   
    5.105       0.1344E-2    0.7975       0.1385E-2    0.8054   
    5.125       0.1350E-2    0.7978       0.1391E-2    0.8057   
    5.145       0.1356E-2    0.7981       0.1398E-2    0.8059   
    5.165       0.1363E-2    0.7983       0.1404E-2    0.8062   
    5.185       0.1369E-2    0.7986       0.1411E-2    0.8065   
    5.205       0.1375E-2    0.7989       0.1417E-2    0.8068   
    5.225       0.1382E-2    0.7992       0.1424E-2    0.8071   
    5.245       0.1388E-2    0.7994       0.1430E-2    0.8074   
    5.265       0.1394E-2    0.7997       0.1437E-2    0.8076   
    5.285       0.1401E-2    0.8000       0.1443E-2    0.8079   
    5.305       0.1407E-2    0.8003       0.1450E-2    0.8082   
    5.325       0.1414E-2    0.8006       0.1457E-2    0.8085   
    5.345       0.1420E-2    0.8008       0.1463E-2    0.8088   
    5.365       0.1426E-2    0.8011       0.1470E-2    0.8091   
    5.385       0.1433E-2    0.8014       0.1477E-2    0.8094   
    5.405       0.1439E-2    0.8017       0.1483E-2    0.8097   
    5.425       0.1446E-2    0.8020       0.1490E-2    0.8100   
    5.445       0.1452E-2    0.8023       0.1497E-2    0.8103   
    5.465       0.1459E-2    0.8026       0.1503E-2    0.8106   
    5.485       0.1465E-2    0.8029       0.1510E-2    0.8109   
    5.506       0.1472E-2    0.8032       0.1517E-2    0.8112   
    5.526       0.1478E-2    0.8034       0.1524E-2    0.8115   
    5.546       0.1485E-2    0.8037       0.1530E-2    0.8118   
    5.566       0.1491E-2    0.8040       0.1537E-2    0.8121   
    5.586       0.1498E-2    0.8043       0.1544E-2    0.8124   
    5.606       0.1505E-2    0.8046       0.1551E-2    0.8127   
    5.626       0.1511E-2    0.8049       0.1558E-2    0.8130   
    5.646       0.1518E-2    0.8052       0.1564E-2    0.8133   
