#                                                           
#  __  __   ________   ___ __ __    _______   ______        
# /_/\/_/\ /_______/\ /__//_//_/\ /_______/\ /_____/\       
# \ \ \ \ \\::: _  \ \\::\| \| \ \\::: _  \ \\:::_ \ \      
#  \:\_\ \ \\::(_)  \ \\:.      \ \\::(_)  \/_\:\ \ \ \     
#   \::::_\/ \:: __  \ \\:.\-/\  \ \\::  _  \ \\:\ \ \ \    
#     \::\ \  \:.\ \  \ \\. \  \  \ \\::(_)  \ \\:\_\ \ \   
#      \__\/   \__\/\__\/ \__\/ \__\/ \_______\/ \_____\/   
#                                                           
#                                                           
#        Version 4.2.0 Revision 14319 Hash 8432f48          
#                  MPI+SLK+OpenMP Build                     
#                http://www.yambo-code.org                  
#
# EELS @ Q(1)  [q->0 direction]:0.1000E-4  0.000     0.000   
#
#
# - Energies      are Teter 93(XC)+Scissor
# - Wavefunctions are Teter 93(XC)
#
# - The Green`s function is Retarded -
# - Using the Length Gauge -
# - [r,Vnl] *is* included -
#
#   BSK|Identifier              :2874
#      |Dimension               :199
#      |Bands                   :1 - 200
#      |Exchange           [res]: yes
#      |Correlation        [res]: no
#      |Kernel`s coupling       : no
#      |Exchange           [cpl]: no
#      |Correlation        [cpl]: no
#      |W interaction is bare   : no
#      |ALDA kernel in R-space  : no
#      |RL vectors    [exchange]:9045
#      |E/h energy range    [ev]:-1.000000 - -1.000000
#      |Coupling range     [o/o]: 100.0000 -  100.0000
#
#  E/ev[1]    EEL-Im[2]  EEL-Re[3]  EELo-Im[4] EELo-Re[5]
#
  0.000000  -0.000000  -0.993520  -0.000000  -0.991367
 0.2002E-1  0.6193E-7  -.9935     0.1376E-6  -.9914   
 0.4004E-1  0.1239E-6  -.9935     0.2752E-6  -.9914   
 0.6006E-1  0.1858E-6  -.9935     0.4127E-6  -.9914   
 0.8008E-1  0.2477E-6  -.9935     0.5503E-6  -.9914   
 0.1001     0.3097E-6  -.9935     0.6879E-6  -.9914   
 0.1201     0.3716E-6  -.9935     0.8255E-6  -.9914   
 0.1401     0.4336E-6  -.9935     0.9632E-6  -.9914   
 0.1602     0.4955E-6  -.9935     0.1101E-5  -.9914   
 0.1802     0.5575E-6  -.9935     0.1238E-5  -.9914   
 0.2002     0.6195E-6  -.9935     0.1376E-5  -.9914   
 0.2202     0.6814E-6  -.9935     0.1514E-5  -.9914   
 0.2402     0.7434E-6  -.9935     0.1652E-5  -.9914   
 0.2603     0.8054E-6  -.9935     0.1789E-5  -.9914   
 0.2803     0.8674E-6  -.9935     0.1927E-5  -.9914   
 0.3003     0.9294E-6  -.9935     0.2065E-5  -.9914   
 0.3203     0.9915E-6  -.9935     0.2203E-5  -.9914   
 0.3403     0.1054E-5  -.9935     0.2341E-5  -.9914   
 0.3604     0.1116E-5  -.9935     0.2479E-5  -.9914   
 0.3804     0.1178E-5  -.9935     0.2617E-5  -.9914   
 0.4004     0.1240E-5  -.9935     0.2755E-5  -.9914   
 0.4204     0.1302E-5  -.9935     0.2893E-5  -.9914   
 0.4404     0.1364E-5  -.9935     0.3031E-5  -.9914   
 0.4605     0.1426E-5  -.9935     0.3170E-5  -.9914   
 0.4805     0.1488E-5  -.9935     0.3308E-5  -.9914   
 0.5005     0.1550E-5  -.9935     0.3446E-5  -.9914   
 0.5205     0.1613E-5  -.9935     0.3585E-5  -.9914   
 0.5405     0.1675E-5  -.9935     0.3723E-5  -.9914   
 0.5606     0.1737E-5  -.9935     0.3862E-5  -.9914   
 0.5806     0.1799E-5  -.9935     0.4000E-5  -.9914   
 0.6006     0.1861E-5  -.9935     0.4139E-5  -.9914   
 0.6206     0.1924E-5  -.9935     0.4278E-5  -.9914   
 0.6406     0.1986E-5  -.9935     0.4417E-5  -.9914   
 0.6607     0.2048E-5  -.9935     0.4556E-5  -.9914   
 0.6807     0.2111E-5  -.9935     0.4695E-5  -.9914   
 0.7007     0.2173E-5  -.9935     0.4834E-5  -.9914   
 0.7207     0.2236E-5  -.9935     0.4973E-5  -.9913   
 0.7407     0.2298E-5  -.9935     0.5113E-5  -.9913   
 0.7608     0.2361E-5  -.9935     0.5252E-5  -.9913   
 0.7808     0.2423E-5  -.9935     0.5392E-5  -.9913   
 0.8008     0.2486E-5  -.9935     0.5531E-5  -.9913   
 0.8208     0.2548E-5  -.9935     0.5671E-5  -.9913   
 0.8408     0.2611E-5  -.9935     0.5811E-5  -.9913   
 0.8609     0.2673E-5  -.9935     0.5951E-5  -.9913   
 0.8809     0.2736E-5  -.9935     0.6091E-5  -.9913   
 0.9009     0.2799E-5  -.9935     0.6231E-5  -.9913   
 0.9209     0.2862E-5  -.9935     0.6372E-5  -.9913   
 0.9409     0.2924E-5  -.9935     0.6512E-5  -.9913   
 0.9610     0.2987E-5  -.9935     0.6653E-5  -.9913   
 0.9810     0.3050E-5  -.9935     0.6793E-5  -.9913   
  1.001     0.3113E-5  -.9935     0.6934E-5  -.9913   
  1.021     0.3176E-5  -.9935     0.7075E-5  -.9913   
  1.041     0.3239E-5  -.9935     0.7216E-5  -.9913   
  1.061     0.3302E-5  -.9935     0.7358E-5  -.9913   
  1.081     0.3365E-5  -.9935     0.7499E-5  -.9913   
  1.101     0.3428E-5  -.9935     0.7641E-5  -.9913   
  1.121     0.3491E-5  -.9935     0.7782E-5  -.9913   
  1.141     0.3554E-5  -.9935     0.7924E-5  -.9913   
  1.161     0.3617E-5  -.9935     0.8066E-5  -.9913   
  1.181     0.3681E-5  -.9935     0.8208E-5  -.9913   
  1.201     0.3744E-5  -.9935     0.8351E-5  -.9913   
  1.221     0.3807E-5  -.9935     0.8493E-5  -.9913   
  1.241     0.3871E-5  -.9935     0.8636E-5  -.9913   
  1.261     0.3934E-5  -.9935     0.8779E-5  -.9913   
  1.281     0.3998E-5  -.9935     0.8922E-5  -.9913   
  1.301     0.4061E-5  -.9935     0.9065E-5  -.9913   
  1.321     0.4125E-5  -.9935     0.9208E-5  -.9913   
  1.341     0.4189E-5  -.9935     0.9352E-5  -.9913   
  1.361     0.4252E-5  -.9935     0.9496E-5  -.9913   
  1.381     0.4316E-5  -.9935     0.9640E-5  -.9913   
  1.401     0.4380E-5  -.9935     0.9784E-5  -.9913   
  1.421     0.4444E-5  -.9935     0.9928E-5  -.9913   
  1.441     0.4508E-5  -.9935     0.1007E-4  -.9913   
  1.461     0.4572E-5  -.9935     0.1022E-4  -.9913   
  1.481     0.4636E-5  -.9935     0.1036E-4  -.9913   
  1.502     0.4700E-5  -.9935     0.1051E-4  -.9913   
  1.522     0.4764E-5  -.9935     0.1065E-4  -.9913   
  1.542     0.4828E-5  -.9935     0.1080E-4  -.9913   
  1.562     0.4892E-5  -.9935     0.1094E-4  -.9913   
  1.582     0.4957E-5  -.9935     0.1109E-4  -.9913   
  1.602     0.5021E-5  -.9935     0.1124E-4  -.9913   
  1.622     0.5086E-5  -.9935     0.1138E-4  -.9913   
  1.642     0.5150E-5  -.9935     0.1153E-4  -.9913   
  1.662     0.5215E-5  -.9935     0.1168E-4  -.9913   
  1.682     0.5280E-5  -.9935     0.1182E-4  -.9913   
  1.702     0.5344E-5  -.9935     0.1197E-4  -.9913   
  1.722     0.5409E-5  -.9935     0.1212E-4  -.9913   
  1.742     0.5474E-5  -.9935     0.1227E-4  -.9913   
  1.762     0.5539E-5  -.9935     0.1241E-4  -.9913   
  1.782     0.5604E-5  -.9935     0.1256E-4  -.9913   
  1.802     0.5669E-5  -.9935     0.1271E-4  -.9913   
  1.822     0.5734E-5  -.9935     0.1286E-4  -.9913   
  1.842     0.5799E-5  -.9935     0.1301E-4  -.9912   
  1.862     0.5865E-5  -.9935     0.1316E-4  -.9912   
  1.882     0.5930E-5  -.9935     0.1331E-4  -.9912   
  1.902     0.5996E-5  -.9935     0.1346E-4  -.9912   
  1.922     0.6061E-5  -.9935     0.1361E-4  -.9912   
  1.942     0.6127E-5  -.9935     0.1376E-4  -.9912   
  1.962     0.6192E-5  -.9935     0.1391E-4  -.9912   
  1.982     0.6258E-5  -.9935     0.1406E-4  -.9912   
  2.002     0.6324E-5  -.9935     0.1421E-4  -.9912   
  2.022     0.6390E-5  -.9935     0.1436E-4  -.9912   
  2.042     0.6456E-5  -.9935     0.1451E-4  -.9912   
  2.062     0.6522E-5  -.9935     0.1467E-4  -.9912   
  2.082     0.6588E-5  -.9935     0.1482E-4  -.9912   
  2.102     0.6655E-5  -.9935     0.1497E-4  -.9912   
  2.122     0.6721E-5  -.9934     0.1512E-4  -.9912   
  2.142     0.6787E-5  -.9934     0.1528E-4  -.9912   
  2.162     0.6854E-5  -.9934     0.1543E-4  -.9912   
  2.182     0.6921E-5  -.9934     0.1558E-4  -.9912   
  2.202     0.6987E-5  -.9934     0.1574E-4  -.9912   
  2.222     0.7054E-5  -.9934     0.1589E-4  -.9912   
  2.242     0.7121E-5  -.9934     0.1605E-4  -.9912   
  2.262     0.7188E-5  -.9934     0.1620E-4  -.9912   
  2.282     0.7255E-5  -.9934     0.1636E-4  -.9912   
  2.302     0.7322E-5  -.9934     0.1652E-4  -.9912   
  2.322     0.7389E-5  -.9934     0.1667E-4  -.9912   
  2.342     0.7457E-5  -.9934     0.1683E-4  -.9912   
  2.362     0.7524E-5  -.9934     0.1699E-4  -.9912   
  2.382     0.7592E-5  -.9934     0.1714E-4  -.9912   
  2.402     0.7660E-5  -.9934     0.1730E-4  -.9912   
  2.422     0.7727E-5  -.9934     0.1746E-4  -.9912   
  2.442     0.7795E-5  -.9934     0.1762E-4  -.9912   
  2.462     0.7863E-5  -.9934     0.1778E-4  -.9912   
  2.482     0.7931E-5  -.9934     0.1793E-4  -.9912   
  2.503     0.7999E-5  -.9934     0.1809E-4  -.9911   
  2.523     0.8068E-5  -.9934     0.1825E-4  -.9911   
  2.543     0.8136E-5  -.9934     0.1841E-4  -.9911   
  2.563     0.8205E-5  -.9934     0.1857E-4  -.9911   
  2.583     0.8273E-5  -.9934     0.1874E-4  -.9911   
  2.603     0.8342E-5  -.9934     0.1890E-4  -.9911   
  2.623     0.8411E-5  -.9934     0.1906E-4  -.9911   
  2.643     0.8480E-5  -.9934     0.1922E-4  -.9911   
  2.663     0.8549E-5  -.9934     0.1938E-4  -.9911   
  2.683     0.8618E-5  -.9934     0.1955E-4  -.9911   
  2.703     0.8687E-5  -.9934     0.1971E-4  -.9911   
  2.723     0.8756E-5  -.9934     0.1987E-4  -.9911   
  2.743     0.8826E-5  -.9934     0.2004E-4  -.9911   
  2.763     0.8896E-5  -.9934     0.2020E-4  -.9911   
  2.783     0.8965E-5  -.9934     0.2037E-4  -.9911   
  2.803     0.9035E-5  -.9934     0.2053E-4  -.9911   
  2.823     0.9105E-5  -.9934     0.2070E-4  -.9911   
  2.843     0.9175E-5  -.9934     0.2087E-4  -.9911   
  2.863     0.9245E-5  -.9934     0.2103E-4  -.9911   
  2.883     0.9316E-5  -.9934     0.2120E-4  -.9911   
  2.903     0.9386E-5  -.9934     0.2137E-4  -.9911   
  2.923     0.9457E-5  -.9934     0.2154E-4  -.9911   
  2.943     0.9528E-5  -.9934     0.2170E-4  -.9911   
  2.963     0.9598E-5  -.9934     0.2187E-4  -.9911   
  2.983     0.9669E-5  -.9934     0.2204E-4  -.9911   
  3.003     0.9740E-5  -.9934     0.2221E-4  -.9910   
  3.023     0.9812E-5  -.9934     0.2238E-4  -.9910   
  3.043     0.9883E-5  -.9934     0.2256E-4  -.9910   
  3.063     0.9955E-5  -.9934     0.2273E-4  -.9910   
  3.083     0.1003E-4  -.9934     0.2290E-4  -.9910   
  3.103     0.1010E-4  -.9934     0.2307E-4  -.9910   
  3.123     0.1017E-4  -.9934     0.2324E-4  -.9910   
  3.143     0.1024E-4  -.9934     0.2342E-4  -.9910   
  3.163     0.1031E-4  -.9934     0.2359E-4  -.9910   
  3.183     0.1039E-4  -.9934     0.2377E-4  -.9910   
  3.203     0.1046E-4  -.9934     0.2394E-4  -.9910   
  3.223     0.1053E-4  -.9934     0.2412E-4  -.9910   
  3.243     0.1060E-4  -.9934     0.2429E-4  -.9910   
  3.263     0.1068E-4  -.9934     0.2447E-4  -.9910   
  3.283     0.1075E-4  -.9933     0.2465E-4  -.9910   
  3.303     0.1082E-4  -.9933     0.2482E-4  -.9910   
  3.323     0.1090E-4  -.9933     0.2500E-4  -.9910   
  3.343     0.1097E-4  -.9933     0.2518E-4  -.9910   
  3.363     0.1104E-4  -.9933     0.2536E-4  -.9910   
  3.383     0.1112E-4  -.9933     0.2554E-4  -.9910   
  3.403     0.1119E-4  -.9933     0.2572E-4  -.9909   
  3.423     0.1127E-4  -.9933     0.2590E-4  -.9909   
  3.443     0.1134E-4  -.9933     0.2608E-4  -.9909   
  3.463     0.1141E-4  -.9933     0.2627E-4  -.9909   
  3.483     0.1149E-4  -.9933     0.2645E-4  -.9909   
  3.504     0.1156E-4  -.9933     0.2663E-4  -.9909   
  3.524     0.1164E-4  -.9933     0.2682E-4  -.9909   
  3.544     0.1171E-4  -.9933     0.2700E-4  -.9909   
  3.564     0.1179E-4  -.9933     0.2719E-4  -.9909   
  3.584     0.1186E-4  -.9933     0.2737E-4  -.9909   
  3.604     0.1194E-4  -.9933     0.2756E-4  -.9909   
  3.624     0.1202E-4  -.9933     0.2775E-4  -.9909   
  3.644     0.1209E-4  -.9933     0.2793E-4  -.9909   
  3.664     0.1217E-4  -.9933     0.2812E-4  -.9909   
  3.684     0.1224E-4  -.9933     0.2831E-4  -.9909   
  3.704     0.1232E-4  -.9933     0.2850E-4  -.9909   
  3.724     0.1240E-4  -.9933     0.2869E-4  -.9909   
  3.744     0.1247E-4  -.9933     0.2888E-4  -.9909   
  3.764     0.1255E-4  -.9933     0.2907E-4  -.9909   
  3.784     0.1263E-4  -.9933     0.2927E-4  -.9908   
  3.804     0.1270E-4  -.9933     0.2946E-4  -.9908   
  3.824     0.1278E-4  -.9933     0.2965E-4  -.9908   
  3.844     0.1286E-4  -.9933     0.2985E-4  -.9908   
  3.864     0.1294E-4  -.9933     0.3004E-4  -.9908   
  3.884     0.1302E-4  -.9933     0.3024E-4  -.9908   
  3.904     0.1309E-4  -.9933     0.3043E-4  -.9908   
  3.924     0.1317E-4  -.9933     0.3063E-4  -.9908   
  3.944     0.1325E-4  -.9933     0.3083E-4  -.9908   
  3.964     0.1333E-4  -.9933     0.3103E-4  -.9908   
  3.984     0.1341E-4  -.9933     0.3123E-4  -.9908   
  4.004     0.1349E-4  -.9933     0.3143E-4  -.9908   
  4.024     0.1357E-4  -.9933     0.3163E-4  -.9908   
  4.044     0.1365E-4  -.9933     0.3183E-4  -.9908   
  4.064     0.1373E-4  -.9933     0.3203E-4  -.9908   
  4.084     0.1381E-4  -.9933     0.3223E-4  -.9908   
  4.104     0.1389E-4  -.9932     0.3244E-4  -.9907   
  4.124     0.1397E-4  -.9932     0.3264E-4  -.9907   
  4.144     0.1405E-4  -.9932     0.3285E-4  -.9907   
  4.164     0.1413E-4  -.9932     0.3305E-4  -.9907   
  4.184     0.1421E-4  -.9932     0.3326E-4  -.9907   
  4.204     0.1429E-4  -.9932     0.3347E-4  -.9907   
  4.224     0.1437E-4  -.9932     0.3368E-4  -.9907   
  4.244     0.1445E-4  -.9932     0.3389E-4  -.9907   
  4.264     0.1453E-4  -.9932     0.3410E-4  -.9907   
  4.284     0.1462E-4  -.9932     0.3431E-4  -.9907   
  4.304     0.1470E-4  -.9932     0.3452E-4  -.9907   
  4.324     0.1478E-4  -.9932     0.3473E-4  -.9907   
  4.344     0.1486E-4  -.9932     0.3494E-4  -.9907   
  4.364     0.1495E-4  -.9932     0.3516E-4  -.9907   
  4.384     0.1503E-4  -.9932     0.3537E-4  -.9907   
  4.404     0.1511E-4  -.9932     0.3559E-4  -.9906   
  4.424     0.1520E-4  -.9932     0.3581E-4  -.9906   
  4.444     0.1528E-4  -.9932     0.3602E-4  -.9906   
  4.464     0.1536E-4  -.9932     0.3624E-4  -.9906   
  4.484     0.1545E-4  -.9932     0.3646E-4  -.9906   
  4.505     0.1553E-4  -.9932     0.3668E-4  -.9906   
  4.525     0.1562E-4  -.9932     0.3690E-4  -.9906   
  4.545     0.1570E-4  -.9932     0.3713E-4  -.9906   
  4.565     0.1579E-4  -.9932     0.3735E-4  -.9906   
  4.585     0.1587E-4  -.9932     0.3757E-4  -.9906   
  4.605     0.1596E-4  -.9932     0.3780E-4  -.9906   
  4.625     0.1604E-4  -.9932     0.3802E-4  -.9906   
  4.645     0.1613E-4  -.9932     0.3825E-4  -.9906   
  4.665     0.1622E-4  -.9932     0.3848E-4  -.9905   
  4.685     0.1630E-4  -.9932     0.3871E-4  -.9905   
  4.705     0.1639E-4  -.9932     0.3894E-4  -.9905   
  4.725     0.1648E-4  -.9932     0.3917E-4  -.9905   
  4.745     0.1656E-4  -.9931     0.3940E-4  -.9905   
  4.765     0.1665E-4  -.9931     0.3963E-4  -.9905   
  4.785     0.1674E-4  -.9931     0.3987E-4  -.9905   
  4.805     0.1683E-4  -.9931     0.4010E-4  -.9905   
  4.825     0.1691E-4  -.9931     0.4034E-4  -.9905   
  4.845     0.1700E-4  -.9931     0.4057E-4  -.9905   
  4.865     0.1709E-4  -.9931     0.4081E-4  -.9905   
  4.885     0.1718E-4  -.9931     0.4105E-4  -.9905   
  4.905     0.1727E-4  -.9931     0.4129E-4  -.9905   
  4.925     0.1736E-4  -.9931     0.4153E-4  -.9904   
  4.945     0.1745E-4  -.9931     0.4177E-4  -.9904   
  4.965     0.1754E-4  -.9931     0.4202E-4  -.9904   
  4.985     0.1763E-4  -.9931     0.4226E-4  -.9904   
  5.005     0.1772E-4  -.9931     0.4251E-4  -.9904   
  5.025     0.1781E-4  -.9931     0.4275E-4  -.9904   
  5.045     0.1790E-4  -.9931     0.4300E-4  -.9904   
  5.065     0.1799E-4  -.9931     0.4325E-4  -.9904   
  5.085     0.1809E-4  -.9931     0.4350E-4  -.9904   
  5.105     0.1818E-4  -.9931     0.4375E-4  -.9904   
  5.125     0.1827E-4  -.9931     0.4400E-4  -.9904   
  5.145     0.1836E-4  -.9931     0.4426E-4  -.9903   
  5.165     0.1846E-4  -.9931     0.4451E-4  -.9903   
  5.185     0.1855E-4  -.9931     0.4477E-4  -.9903   
  5.205     0.1864E-4  -.9931     0.4503E-4  -.9903   
  5.225     0.1874E-4  -.9931     0.4528E-4  -.9903   
  5.245     0.1883E-4  -.9931     0.4554E-4  -.9903   
  5.265     0.1893E-4  -.9931     0.4580E-4  -.9903   
  5.285     0.1902E-4  -.9931     0.4607E-4  -.9903   
  5.305     0.1911E-4  -.9930     0.4633E-4  -.9903   
  5.325     0.1921E-4  -.9930     0.4659E-4  -.9903   
  5.345     0.1931E-4  -.9930     0.4686E-4  -.9903   
  5.365     0.1940E-4  -.9930     0.4713E-4  -.9902   
  5.385     0.1950E-4  -.9930     0.4740E-4  -.9902   
  5.405     0.1959E-4  -.9930     0.4767E-4  -.9902   
  5.425     0.1969E-4  -.9930     0.4794E-4  -.9902   
  5.445     0.1979E-4  -.9930     0.4821E-4  -.9902   
  5.465     0.1989E-4  -.9930     0.4848E-4  -.9902   
  5.485     0.1998E-4  -.9930     0.4876E-4  -.9902   
  5.506     0.2008E-4  -.9930     0.4903E-4  -.9902   
  5.526     0.2018E-4  -.9930     0.4931E-4  -.9902   
  5.546     0.2028E-4  -.9930     0.4959E-4  -.9902   
  5.566     0.2038E-4  -.9930     0.4987E-4  -.9902   
  5.586     0.2048E-4  -.9930     0.5015E-4  -.9901   
  5.606     0.2058E-4  -.9930     0.5044E-4  -.9901   
  5.626     0.2068E-4  -.9930     0.5072E-4  -.9901   
  5.646     0.2078E-4  -.9930     0.5101E-4  -.9901   
  5.666     0.2088E-4  -.9930     0.5130E-4  -.9901   
  5.686     0.2098E-4  -.9930     0.5159E-4  -.9901   
  5.706     0.2108E-4  -.9930     0.5188E-4  -.9901   
  5.726     0.2118E-4  -.9930     0.5217E-4  -.9901   
  5.746     0.2129E-4  -.9930     0.5246E-4  -.9901   
  5.766     0.2139E-4  -.9930     0.5276E-4  -.9900   
  5.786     0.2149E-4  -.9930     0.5306E-4  -.9900   
  5.806     0.2159E-4  -.9929     0.5335E-4  -.9900   
  5.826     0.2170E-4  -.9929     0.5365E-4  -.9900   
  5.846     0.2180E-4  -.9929     0.5396E-4  -.9900   
  5.866     0.2191E-4  -.9929     0.5426E-4  -.9900   
  5.886     0.2201E-4  -.9929     0.5456E-4  -.9900   
  5.906     0.2212E-4  -.9929     0.5487E-4  -.9900   
  5.926     0.2222E-4  -.9929     0.5518E-4  -.9900   
  5.946     0.2233E-4  -.9929     0.5549E-4  -.9900   
  5.966     0.2243E-4  -.9929     0.5580E-4  -.9899   
  5.986     0.2254E-4  -.9929     0.5611E-4  -.9899   
  6.006     0.2265E-4  -.9929     0.5643E-4  -.9899   
  6.026     0.2276E-4  -.9929     0.5674E-4  -.9899   
  6.046     0.2286E-4  -.9929     0.5706E-4  -.9899   
  6.066     0.2297E-4  -.9929     0.5738E-4  -.9899   
  6.086     0.2308E-4  -.9929     0.5770E-4  -.9899   
  6.106     0.2319E-4  -.9929     0.5803E-4  -.9899   
  6.126     0.2330E-4  -.9929     0.5835E-4  -.9898   
  6.146     0.2341E-4  -.9929     0.5868E-4  -.9898   
  6.166     0.2352E-4  -.9929     0.5901E-4  -.9898   
  6.186     0.2363E-4  -.9929     0.5934E-4  -.9898   
  6.206     0.2374E-4  -.9929     0.5967E-4  -.9898   
  6.226     0.2385E-4  -.9929     0.6001E-4  -.9898   
  6.246     0.2396E-4  -.9928     0.6034E-4  -.9898   
  6.266     0.2408E-4  -.9928     0.6068E-4  -.9898   
  6.286     0.2419E-4  -.9928     0.6102E-4  -.9898   
  6.306     0.2430E-4  -.9928     0.6136E-4  -.9897   
  6.326     0.2442E-4  -.9928     0.6171E-4  -.9897   
  6.346     0.2453E-4  -.9928     0.6205E-4  -.9897   
  6.366     0.2464E-4  -.9928     0.6240E-4  -.9897   
  6.386     0.2476E-4  -.9928     0.6275E-4  -.9897   
  6.406     0.2487E-4  -.9928     0.6310E-4  -.9897   
  6.426     0.2499E-4  -.9928     0.6346E-4  -.9897   
  6.446     0.2511E-4  -.9928     0.6381E-4  -.9897   
  6.466     0.2522E-4  -.9928     0.6417E-4  -.9896   
  6.486     0.2534E-4  -.9928     0.6453E-4  -.9896   
  6.507     0.2546E-4  -.9928     0.6489E-4  -.9896   
  6.527     0.2558E-4  -.9928     0.6526E-4  -.9896   
  6.547     0.2569E-4  -.9928     0.6562E-4  -.9896   
  6.567     0.2581E-4  -.9928     0.6599E-4  -.9896   
  6.587     0.2593E-4  -.9928     0.6636E-4  -.9896   
  6.607     0.2605E-4  -.9928     0.6674E-4  -.9895   
  6.627     0.2617E-4  -.9928     0.6711E-4  -.9895   
  6.647     0.2629E-4  -.9927     0.6749E-4  -.9895   
  6.667     0.2642E-4  -.9927     0.6787E-4  -.9895   
