#                                                           
#  __  __   ________   ___ __ __    _______   ______        
# /_/\/_/\ /_______/\ /__//_//_/\ /_______/\ /_____/\       
# \ \ \ \ \\::: _  \ \\::\| \| \ \\::: _  \ \\:::_ \ \      
#  \:\_\ \ \\::(_)  \ \\:.      \ \\::(_)  \/_\:\ \ \ \     
#   \::::_\/ \:: __  \ \\:.\-/\  \ \\::  _  \ \\:\ \ \ \    
#     \::\ \  \:.\ \  \ \\. \  \  \ \\::(_)  \ \\:\_\ \ \   
#      \__\/   \__\/\__\/ \__\/ \__\/ \_______\/ \_____\/   
#                                                           
#                                                           
#        Version 4.2.0 Revision 14319 Hash 8432f48          
#                  MPI+SLK+OpenMP Build                     
#                http://www.yambo-code.org                  
#
# Joint density of states @ Q(1) [q->0 direction] :0.1000E-4  0.000     0.000   
#
# - Energies      are Teter 93(XC)+Scissor
# - The Green`s function is Retarded -
#
#   BSK|Identifier              :2874
#      |Dimension               :199
#      |Bands                   :1 - 200
#      |Exchange           [res]: yes
#      |Correlation        [res]: no
#      |Kernel`s coupling       : no
#      |Exchange           [cpl]: no
#      |Correlation        [cpl]: no
#      |W interaction is bare   : no
#      |ALDA kernel in R-space  : no
#      |RL vectors    [exchange]:9045
#      |E/h energy range    [ev]:-1.000000 - -1.000000
#      |Coupling range     [o/o]: 100.0000 -  100.0000
#
#  E/ev[1]    jdos-Im[2] jdos-Re[3] jdoso-Im[4]jdoso-Re[5]jdos`-Im[6]jdos`-Re[7]
#
  0.000000   0.000000   0.762316   0.000000   0.765364
 0.2002E-1  0.6180E-5  0.7623     0.6271E-5  0.7654   
 0.4004E-1  0.1236E-4  0.7623     0.1254E-4  0.7654   
 0.6006E-1  0.1854E-4  0.7623     0.1881E-4  0.7654   
 0.8008E-1  0.2472E-4  0.7623     0.2508E-4  0.7654   
 0.1001     0.3090E-4  0.7623     0.3135E-4  0.7654   
 0.1201     0.3708E-4  0.7623     0.3763E-4  0.7654   
 0.1401     0.4326E-4  0.7623     0.4390E-4  0.7654   
 0.1602     0.4945E-4  0.7624     0.5017E-4  0.7654   
 0.1802     0.5563E-4  0.7624     0.5644E-4  0.7654   
 0.2002     0.6181E-4  0.7624     0.6272E-4  0.7654   
 0.2202     0.6799E-4  0.7624     0.6899E-4  0.7654   
 0.2402     0.7418E-4  0.7624     0.7527E-4  0.7655   
 0.2603     0.8036E-4  0.7624     0.8154E-4  0.7655   
 0.2803     0.8655E-4  0.7624     0.8782E-4  0.7655   
 0.3003     0.9274E-4  0.7625     0.9410E-4  0.7655   
 0.3203     0.9892E-4  0.7625     0.1004E-3  0.7655   
 0.3403     0.1051E-3  0.7625     0.1067E-3  0.7655   
 0.3604     0.1113E-3  0.7625     0.1129E-3  0.7656   
 0.3804     0.1175E-3  0.7625     0.1192E-3  0.7656   
 0.4004     0.1237E-3  0.7626     0.1255E-3  0.7656   
 0.4204     0.1299E-3  0.7626     0.1318E-3  0.7656   
 0.4404     0.1361E-3  0.7626     0.1381E-3  0.7657   
 0.4605     0.1423E-3  0.7626     0.1444E-3  0.7657   
 0.4805     0.1485E-3  0.7627     0.1507E-3  0.7657   
 0.5005     0.1547E-3  0.7627     0.1569E-3  0.7658   
 0.5205     0.1609E-3  0.7627     0.1632E-3  0.7658   
 0.5405     0.1671E-3  0.7628     0.1695E-3  0.7658   
 0.5606     0.1733E-3  0.7628     0.1758E-3  0.7659   
 0.5806     0.1795E-3  0.7628     0.1821E-3  0.7659   
 0.6006     0.1857E-3  0.7629     0.1884E-3  0.7659   
 0.6206     0.1919E-3  0.7629     0.1947E-3  0.7660   
 0.6406     0.1981E-3  0.7630     0.2010E-3  0.7660   
 0.6607     0.2043E-3  0.7630     0.2073E-3  0.7660   
 0.6807     0.2105E-3  0.7630     0.2136E-3  0.7661   
 0.7007     0.2168E-3  0.7631     0.2200E-3  0.7661   
 0.7207     0.2230E-3  0.7631     0.2263E-3  0.7662   
 0.7407     0.2292E-3  0.7632     0.2326E-3  0.7662   
 0.7608     0.2354E-3  0.7632     0.2389E-3  0.7663   
 0.7808     0.2417E-3  0.7633     0.2452E-3  0.7663   
 0.8008     0.2479E-3  0.7633     0.2515E-3  0.7664   
 0.8208     0.2541E-3  0.7634     0.2579E-3  0.7664   
 0.8408     0.2604E-3  0.7634     0.2642E-3  0.7665   
 0.8609     0.2666E-3  0.7635     0.2705E-3  0.7665   
 0.8809     0.2728E-3  0.7635     0.2769E-3  0.7666   
 0.9009     0.2791E-3  0.7636     0.2832E-3  0.7666   
 0.9209     0.2853E-3  0.7636     0.2895E-3  0.7667   
 0.9409     0.2916E-3  0.7637     0.2959E-3  0.7668   
 0.9610     0.2978E-3  0.7637     0.3022E-3  0.7668   
 0.9810     0.3041E-3  0.7638     0.3086E-3  0.7669   
  1.001     0.3104E-3  0.7639     0.3149E-3  0.7669   
  1.021     0.3166E-3  0.7639     0.3213E-3  0.7670   
  1.041     0.3229E-3  0.7640     0.3277E-3  0.7671   
  1.061     0.3292E-3  0.7641     0.3340E-3  0.7671   
  1.081     0.3354E-3  0.7641     0.3404E-3  0.7672   
  1.101     0.3417E-3  0.7642     0.3468E-3  0.7673   
  1.121     0.3480E-3  0.7643     0.3531E-3  0.7673   
  1.141     0.3543E-3  0.7643     0.3595E-3  0.7674   
  1.161     0.3606E-3  0.7644     0.3659E-3  0.7675   
  1.181     0.3669E-3  0.7645     0.3723E-3  0.7676   
  1.201     0.3731E-3  0.7646     0.3787E-3  0.7676   
  1.221     0.3794E-3  0.7646     0.3851E-3  0.7677   
  1.241     0.3858E-3  0.7647     0.3915E-3  0.7678   
  1.261     0.3921E-3  0.7648     0.3979E-3  0.7679   
  1.281     0.3984E-3  0.7649     0.4043E-3  0.7679   
  1.301     0.4047E-3  0.7649     0.4107E-3  0.7680   
  1.321     0.4110E-3  0.7650     0.4171E-3  0.7681   
  1.341     0.4173E-3  0.7651     0.4235E-3  0.7682   
  1.361     0.4237E-3  0.7652     0.4299E-3  0.7683   
  1.381     0.4300E-3  0.7653     0.4364E-3  0.7684   
  1.401     0.4363E-3  0.7654     0.4428E-3  0.7685   
  1.421     0.4427E-3  0.7654     0.4492E-3  0.7685   
  1.441     0.4490E-3  0.7655     0.4557E-3  0.7686   
  1.461     0.4554E-3  0.7656     0.4621E-3  0.7687   
  1.481     0.4617E-3  0.7657     0.4686E-3  0.7688   
  1.502     0.4681E-3  0.7658     0.4751E-3  0.7689   
  1.522     0.4745E-3  0.7659     0.4815E-3  0.7690   
  1.542     0.4808E-3  0.7660     0.4880E-3  0.7691   
  1.562     0.4872E-3  0.7661     0.4945E-3  0.7692   
  1.582     0.4936E-3  0.7662     0.5009E-3  0.7693   
  1.602     0.5000E-3  0.7663     0.5074E-3  0.7694   
  1.622     0.5064E-3  0.7664     0.5139E-3  0.7695   
  1.642     0.5128E-3  0.7665     0.5204E-3  0.7696   
  1.662     0.5192E-3  0.7666     0.5269E-3  0.7697   
  1.682     0.5256E-3  0.7667     0.5334E-3  0.7698   
  1.702     0.5320E-3  0.7668     0.5399E-3  0.7699   
  1.722     0.5384E-3  0.7669     0.5465E-3  0.7700   
  1.742     0.5449E-3  0.7670     0.5530E-3  0.7701   
  1.762     0.5513E-3  0.7671     0.5595E-3  0.7703   
  1.782     0.5577E-3  0.7672     0.5661E-3  0.7704   
  1.802     0.5642E-3  0.7674     0.5726E-3  0.7705   
  1.822     0.5706E-3  0.7675     0.5791E-3  0.7706   
  1.842     0.5771E-3  0.7676     0.5857E-3  0.7707   
  1.862     0.5836E-3  0.7677     0.5923E-3  0.7708   
  1.882     0.5900E-3  0.7678     0.5988E-3  0.7710   
  1.902     0.5965E-3  0.7679     0.6054E-3  0.7711   
  1.922     0.6030E-3  0.7681     0.6120E-3  0.7712   
  1.942     0.6095E-3  0.7682     0.6186E-3  0.7713   
  1.962     0.6160E-3  0.7683     0.6252E-3  0.7714   
  1.982     0.6225E-3  0.7684     0.6318E-3  0.7716   
  2.002     0.6290E-3  0.7686     0.6384E-3  0.7717   
  2.022     0.6355E-3  0.7687     0.6450E-3  0.7718   
  2.042     0.6420E-3  0.7688     0.6516E-3  0.7720   
  2.062     0.6486E-3  0.7689     0.6583E-3  0.7721   
  2.082     0.6551E-3  0.7691     0.6649E-3  0.7722   
  2.102     0.6616E-3  0.7692     0.6716E-3  0.7724   
  2.122     0.6682E-3  0.7693     0.6782E-3  0.7725   
  2.142     0.6747E-3  0.7695     0.6849E-3  0.7726   
  2.162     0.6813E-3  0.7696     0.6915E-3  0.7728   
  2.182     0.6879E-3  0.7697     0.6982E-3  0.7729   
  2.202     0.6945E-3  0.7699     0.7049E-3  0.7730   
  2.222     0.7011E-3  0.7700     0.7116E-3  0.7732   
  2.242     0.7077E-3  0.7702     0.7183E-3  0.7733   
  2.262     0.7143E-3  0.7703     0.7250E-3  0.7735   
  2.282     0.7209E-3  0.7704     0.7317E-3  0.7736   
  2.302     0.7275E-3  0.7706     0.7384E-3  0.7738   
  2.322     0.7341E-3  0.7707     0.7452E-3  0.7739   
  2.342     0.7408E-3  0.7709     0.7519E-3  0.7741   
  2.362     0.7474E-3  0.7710     0.7587E-3  0.7742   
  2.382     0.7540E-3  0.7712     0.7654E-3  0.7744   
  2.402     0.7607E-3  0.7713     0.7722E-3  0.7745   
  2.422     0.7674E-3  0.7715     0.7790E-3  0.7747   
  2.442     0.7741E-3  0.7716     0.7857E-3  0.7748   
  2.462     0.7807E-3  0.7718     0.7925E-3  0.7750   
  2.482     0.7874E-3  0.7720     0.7993E-3  0.7751   
  2.503     0.7941E-3  0.7721     0.8062E-3  0.7753   
  2.523     0.8008E-3  0.7723     0.8130E-3  0.7755   
  2.543     0.8076E-3  0.7724     0.8198E-3  0.7756   
  2.563     0.8143E-3  0.7726     0.8266E-3  0.7758   
  2.583     0.8210E-3  0.7728     0.8335E-3  0.7760   
  2.603     0.8278E-3  0.7729     0.8403E-3  0.7761   
  2.623     0.8345E-3  0.7731     0.8472E-3  0.7763   
  2.643     0.8413E-3  0.7733     0.8541E-3  0.7765   
  2.663     0.8481E-3  0.7734     0.8610E-3  0.7766   
  2.683     0.8549E-3  0.7736     0.8679E-3  0.7768   
  2.703     0.8617E-3  0.7738     0.8748E-3  0.7770   
  2.723     0.8685E-3  0.7739     0.8817E-3  0.7772   
  2.743     0.8753E-3  0.7741     0.8886E-3  0.7773   
  2.763     0.8821E-3  0.7743     0.8955E-3  0.7775   
  2.783     0.8889E-3  0.7745     0.9025E-3  0.7777   
  2.803     0.8958E-3  0.7747     0.9094E-3  0.7779   
  2.823     0.9026E-3  0.7748     0.9164E-3  0.7781   
  2.843     0.9095E-3  0.7750     0.9234E-3  0.7783   
  2.863     0.9164E-3  0.7752     0.9304E-3  0.7784   
  2.883     0.9232E-3  0.7754     0.9374E-3  0.7786   
  2.903     0.9301E-3  0.7756     0.9444E-3  0.7788   
  2.923     0.9370E-3  0.7758     0.9514E-3  0.7790   
  2.943     0.9440E-3  0.7759     0.9584E-3  0.7792   
  2.963     0.9509E-3  0.7761     0.9655E-3  0.7794   
  2.983     0.9578E-3  0.7763     0.9725E-3  0.7796   
  3.003     0.9648E-3  0.7765     0.9796E-3  0.7798   
  3.023     0.9717E-3  0.7767     0.9866E-3  0.7800   
  3.043     0.9787E-3  0.7769     0.9937E-3  0.7802   
  3.063     0.9857E-3  0.7771     0.1001E-2  0.7804   
  3.083     0.9927E-3  0.7773     0.1008E-2  0.7806   
  3.103     0.9997E-3  0.7775     0.1015E-2  0.7808   
  3.123     0.1007E-2  0.7777     0.1022E-2  0.7810   
  3.143     0.1014E-2  0.7779     0.1029E-2  0.7812   
  3.163     0.1021E-2  0.7781     0.1036E-2  0.7814   
  3.183     0.1028E-2  0.7783     0.1044E-2  0.7816   
  3.203     0.1035E-2  0.7785     0.1051E-2  0.7818   
  3.223     0.1042E-2  0.7787     0.1058E-2  0.7820   
  3.243     0.1049E-2  0.7789     0.1065E-2  0.7822   
  3.263     0.1056E-2  0.7791     0.1072E-2  0.7824   
  3.283     0.1063E-2  0.7794     0.1080E-2  0.7827   
  3.303     0.1070E-2  0.7796     0.1087E-2  0.7829   
  3.323     0.1077E-2  0.7798     0.1094E-2  0.7831   
  3.343     0.1085E-2  0.7800     0.1101E-2  0.7833   
  3.363     0.1092E-2  0.7802     0.1109E-2  0.7835   
  3.383     0.1099E-2  0.7804     0.1116E-2  0.7838   
  3.403     0.1106E-2  0.7807     0.1123E-2  0.7840   
  3.423     0.1113E-2  0.7809     0.1131E-2  0.7842   
  3.443     0.1120E-2  0.7811     0.1138E-2  0.7844   
  3.463     0.1128E-2  0.7813     0.1145E-2  0.7847   
  3.483     0.1135E-2  0.7816     0.1153E-2  0.7849   
  3.504     0.1142E-2  0.7818     0.1160E-2  0.7851   
  3.524     0.1149E-2  0.7820     0.1167E-2  0.7854   
  3.544     0.1157E-2  0.7822     0.1175E-2  0.7856   
  3.564     0.1164E-2  0.7825     0.1182E-2  0.7858   
  3.584     0.1171E-2  0.7827     0.1190E-2  0.7861   
  3.604     0.1179E-2  0.7829     0.1197E-2  0.7863   
  3.624     0.1186E-2  0.7832     0.1205E-2  0.7865   
  3.644     0.1193E-2  0.7834     0.1212E-2  0.7868   
  3.664     0.1201E-2  0.7837     0.1219E-2  0.7870   
  3.684     0.1208E-2  0.7839     0.1227E-2  0.7873   
  3.704     0.1215E-2  0.7841     0.1234E-2  0.7875   
  3.724     0.1223E-2  0.7844     0.1242E-2  0.7878   
  3.744     0.1230E-2  0.7846     0.1250E-2  0.7880   
  3.764     0.1238E-2  0.7849     0.1257E-2  0.7883   
  3.784     0.1245E-2  0.7851     0.1265E-2  0.7885   
  3.804     0.1253E-2  0.7854     0.1272E-2  0.7888   
  3.824     0.1260E-2  0.7856     0.1280E-2  0.7890   
  3.844     0.1267E-2  0.7859     0.1287E-2  0.7893   
  3.864     0.1275E-2  0.7861     0.1295E-2  0.7895   
  3.884     0.1282E-2  0.7864     0.1303E-2  0.7898   
  3.904     0.1290E-2  0.7866     0.1310E-2  0.7901   
  3.924     0.1298E-2  0.7869     0.1318E-2  0.7903   
  3.944     0.1305E-2  0.7872     0.1326E-2  0.7906   
  3.964     0.1313E-2  0.7874     0.1334E-2  0.7909   
  3.984     0.1320E-2  0.7877     0.1341E-2  0.7911   
  4.004     0.1328E-2  0.7880     0.1349E-2  0.7914   
  4.024     0.1335E-2  0.7882     0.1357E-2  0.7917   
  4.044     0.1343E-2  0.7885     0.1365E-2  0.7919   
  4.064     0.1351E-2  0.7888     0.1372E-2  0.7922   
  4.084     0.1358E-2  0.7890     0.1380E-2  0.7925   
  4.104     0.1366E-2  0.7893     0.1388E-2  0.7928   
  4.124     0.1374E-2  0.7896     0.1396E-2  0.7930   
  4.144     0.1382E-2  0.7899     0.1404E-2  0.7933   
  4.164     0.1389E-2  0.7901     0.1412E-2  0.7936   
  4.184     0.1397E-2  0.7904     0.1419E-2  0.7939   
  4.204     0.1405E-2  0.7907     0.1427E-2  0.7942   
  4.224     0.1413E-2  0.7910     0.1435E-2  0.7945   
  4.244     0.1420E-2  0.7913     0.1443E-2  0.7948   
  4.264     0.1428E-2  0.7915     0.1451E-2  0.7950   
  4.284     0.1436E-2  0.7918     0.1459E-2  0.7953   
  4.304     0.1444E-2  0.7921     0.1467E-2  0.7956   
  4.324     0.1452E-2  0.7924     0.1475E-2  0.7959   
  4.344     0.1460E-2  0.7927     0.1483E-2  0.7962   
  4.364     0.1468E-2  0.7930     0.1491E-2  0.7965   
  4.384     0.1475E-2  0.7933     0.1499E-2  0.7968   
  4.404     0.1483E-2  0.7936     0.1507E-2  0.7971   
  4.424     0.1491E-2  0.7939     0.1516E-2  0.7974   
  4.444     0.1499E-2  0.7942     0.1524E-2  0.7977   
  4.464     0.1507E-2  0.7945     0.1532E-2  0.7980   
  4.484     0.1515E-2  0.7948     0.1540E-2  0.7983   
  4.505     0.1523E-2  0.7951     0.1548E-2  0.7986   
  4.525     0.1531E-2  0.7954     0.1556E-2  0.7990   
  4.545     0.1540E-2  0.7957     0.1565E-2  0.7993   
  4.565     0.1548E-2  0.7960     0.1573E-2  0.7996   
  4.585     0.1556E-2  0.7963     0.1581E-2  0.7999   
  4.605     0.1564E-2  0.7966     0.1589E-2  0.8002   
  4.625     0.1572E-2  0.7969     0.1598E-2  0.8005   
  4.645     0.1580E-2  0.7973     0.1606E-2  0.8009   
  4.665     0.1588E-2  0.7976     0.1614E-2  0.8012   
  4.685     0.1597E-2  0.7979     0.1623E-2  0.8015   
  4.705     0.1605E-2  0.7982     0.1631E-2  0.8018   
  4.725     0.1613E-2  0.7985     0.1640E-2  0.8022   
  4.745     0.1621E-2  0.7989     0.1648E-2  0.8025   
  4.765     0.1630E-2  0.7992     0.1656E-2  0.8028   
  4.785     0.1638E-2  0.7995     0.1665E-2  0.8031   
  4.805     0.1646E-2  0.7998     0.1673E-2  0.8035   
  4.825     0.1655E-2  0.8002     0.1682E-2  0.8038   
  4.845     0.1663E-2  0.8005     0.1690E-2  0.8042   
  4.865     0.1671E-2  0.8008     0.1699E-2  0.8045   
  4.885     0.1680E-2  0.8012     0.1708E-2  0.8048   
  4.905     0.1688E-2  0.8015     0.1716E-2  0.8052   
  4.925     0.1697E-2  0.8019     0.1725E-2  0.8055   
  4.945     0.1705E-2  0.8022     0.1733E-2  0.8059   
  4.965     0.1714E-2  0.8025     0.1742E-2  0.8062   
  4.985     0.1722E-2  0.8029     0.1751E-2  0.8066   
  5.005     0.1731E-2  0.8032     0.1760E-2  0.8069   
  5.025     0.1739E-2  0.8036     0.1768E-2  0.8073   
  5.045     0.1748E-2  0.8039     0.1777E-2  0.8076   
  5.065     0.1756E-2  0.8043     0.1786E-2  0.8080   
  5.085     0.1765E-2  0.8046     0.1795E-2  0.8083   
  5.105     0.1774E-2  0.8050     0.1803E-2  0.8087   
  5.125     0.1782E-2  0.8053     0.1812E-2  0.8091   
  5.145     0.1791E-2  0.8057     0.1821E-2  0.8094   
  5.165     0.1800E-2  0.8061     0.1830E-2  0.8098   
  5.185     0.1809E-2  0.8064     0.1839E-2  0.8102   
  5.205     0.1817E-2  0.8068     0.1848E-2  0.8105   
  5.225     0.1826E-2  0.8071     0.1857E-2  0.8109   
  5.245     0.1835E-2  0.8075     0.1866E-2  0.8113   
  5.265     0.1844E-2  0.8079     0.1875E-2  0.8116   
  5.285     0.1853E-2  0.8082     0.1884E-2  0.8120   
  5.305     0.1862E-2  0.8086     0.1893E-2  0.8124   
  5.325     0.1870E-2  0.8090     0.1902E-2  0.8128   
  5.345     0.1879E-2  0.8094     0.1911E-2  0.8132   
  5.365     0.1888E-2  0.8097     0.1920E-2  0.8135   
  5.385     0.1897E-2  0.8101     0.1930E-2  0.8139   
  5.405     0.1906E-2  0.8105     0.1939E-2  0.8143   
  5.425     0.1915E-2  0.8109     0.1948E-2  0.8147   
  5.445     0.1924E-2  0.8113     0.1957E-2  0.8151   
  5.465     0.1933E-2  0.8117     0.1967E-2  0.8155   
  5.485     0.1943E-2  0.8120     0.1976E-2  0.8159   
  5.506     0.1952E-2  0.8124     0.1985E-2  0.8163   
  5.526     0.1961E-2  0.8128     0.1995E-2  0.8167   
  5.546     0.1970E-2  0.8132     0.2004E-2  0.8171   
  5.566     0.1979E-2  0.8136     0.2013E-2  0.8175   
  5.586     0.1989E-2  0.8140     0.2023E-2  0.8179   
  5.606     0.1998E-2  0.8144     0.2032E-2  0.8183   
  5.626     0.2007E-2  0.8148     0.2042E-2  0.8187   
  5.646     0.2016E-2  0.8152     0.2051E-2  0.8191   
  5.666     0.2026E-2  0.8156     0.2061E-2  0.8195   
  5.686     0.2035E-2  0.8160     0.2070E-2  0.8199   
  5.706     0.2045E-2  0.8164     0.2080E-2  0.8203   
  5.726     0.2054E-2  0.8168     0.2090E-2  0.8208   
  5.746     0.2063E-2  0.8173     0.2099E-2  0.8212   
  5.766     0.2073E-2  0.8177     0.2109E-2  0.8216   
  5.786     0.2082E-2  0.8181     0.2119E-2  0.8220   
  5.806     0.2092E-2  0.8185     0.2129E-2  0.8225   
  5.826     0.2102E-2  0.8189     0.2138E-2  0.8229   
  5.846     0.2111E-2  0.8193     0.2148E-2  0.8233   
  5.866     0.2121E-2  0.8198     0.2158E-2  0.8237   
  5.886     0.2130E-2  0.8202     0.2168E-2  0.8242   
  5.906     0.2140E-2  0.8206     0.2178E-2  0.8246   
  5.926     0.2150E-2  0.8211     0.2188E-2  0.8250   
  5.946     0.2160E-2  0.8215     0.2198E-2  0.8255   
  5.966     0.2169E-2  0.8219     0.2208E-2  0.8259   
  5.986     0.2179E-2  0.8224     0.2218E-2  0.8264   
  6.006     0.2189E-2  0.8228     0.2228E-2  0.8268   
  6.026     0.2199E-2  0.8232     0.2238E-2  0.8273   
  6.046     0.2209E-2  0.8237     0.2248E-2  0.8277   
  6.066     0.2219E-2  0.8241     0.2258E-2  0.8282   
  6.086     0.2229E-2  0.8246     0.2268E-2  0.8286   
  6.106     0.2239E-2  0.8250     0.2279E-2  0.8291   
  6.126     0.2249E-2  0.8255     0.2289E-2  0.8295   
  6.146     0.2259E-2  0.8259     0.2299E-2  0.8300   
  6.166     0.2269E-2  0.8264     0.2309E-2  0.8304   
  6.186     0.2279E-2  0.8268     0.2320E-2  0.8309   
  6.206     0.2289E-2  0.8273     0.2330E-2  0.8314   
  6.226     0.2299E-2  0.8277     0.2341E-2  0.8318   
  6.246     0.2310E-2  0.8282     0.2351E-2  0.8323   
  6.266     0.2320E-2  0.8287     0.2362E-2  0.8328   
  6.286     0.2330E-2  0.8291     0.2372E-2  0.8333   
  6.306     0.2340E-2  0.8296     0.2383E-2  0.8337   
  6.326     0.2351E-2  0.8301     0.2393E-2  0.8342   
  6.346     0.2361E-2  0.8305     0.2404E-2  0.8347   
  6.366     0.2371E-2  0.8310     0.2415E-2  0.8352   
  6.386     0.2382E-2  0.8315     0.2425E-2  0.8357   
  6.406     0.2392E-2  0.8320     0.2436E-2  0.8361   
  6.426     0.2403E-2  0.8324     0.2447E-2  0.8366   
  6.446     0.2414E-2  0.8329     0.2458E-2  0.8371   
  6.466     0.2424E-2  0.8334     0.2468E-2  0.8376   
  6.486     0.2435E-2  0.8339     0.2479E-2  0.8381   
  6.507     0.2445E-2  0.8344     0.2490E-2  0.8386   
  6.527     0.2456E-2  0.8349     0.2501E-2  0.8391   
  6.547     0.2467E-2  0.8354     0.2512E-2  0.8396   
  6.567     0.2478E-2  0.8359     0.2523E-2  0.8401   
  6.587     0.2488E-2  0.8364     0.2534E-2  0.8406   
  6.607     0.2499E-2  0.8369     0.2545E-2  0.8411   
  6.627     0.2510E-2  0.8374     0.2557E-2  0.8416   
  6.647     0.2521E-2  0.8379     0.2568E-2  0.8422   
  6.667     0.2532E-2  0.8384     0.2579E-2  0.8427   
  6.687     0.2543E-2  0.8389     0.2590E-2  0.8432   
