#                                                           
#  **    **    **     ****     ****  ******     *******     
# //**  **    ****   /**/**   **/** /*////**   **/////**    
#  //****    **//**  /**//** ** /** /*   /**  **     //**   
#   //**    **  //** /** //***  /** /******  /**      /**   
#    /**   **********/**  //*   /** /*//// **/**      /**   
#    /**  /**//////**/**   /    /** /*    /**//**     **    
#    /**  /**     /**/**        /** /*******  //*******     
#    //   //      // //         //  ///////    ///////      
#                                                           
#        Version 4.2.0 Revision 14319 Hash 8432f48          
#                  MPI+SLK+OpenMP Build                     
#                http://www.yambo-code.org                  
#
# Polarizability ( -<<X>> ) [volume @ Q(1) [q->0 direction]0.1000E-4  0.000     0.000   
#
#
# - Energies      are Teter 93(XC)
# - Wavefunctions are Teter 93(XC)
#
# - The Green`s function is Retarded -
# - Using the Length Gauge -
# - [r,Vnl] *is* included -
#
#   BSK|Identifier              :6493
#      |Dimension               :199
#      |Bands                   :1 - 200
#      |Exchange           [res]: yes
#      |Correlation        [res]: no
#      |Kernel`s coupling       : no
#      |Exchange           [cpl]: no
#      |Correlation        [cpl]: no
#      |W interaction is bare   : no
#      |ALDA kernel in R-space  : no
#      |RL vectors    [exchange]:9045
#      |E/h energy range    [ev]:-1.000000 - -1.000000
#      |Coupling range     [o/o]: 100.0000 -  100.0000
#
#  E/ev[1]    ALPHA-Im[2]ALPHA-Re[3]ALPHAo-Im[4ALPHAo-Re[5]
#
   0.00000    0.00000   12.80394    0.00000   20.54934
 0.1502E-1  0.2552E-3   12.80     0.9184E-3   20.55   
 0.3003E-1  0.5104E-3   12.80     0.1837E-2   20.55   
 0.4505E-1  0.7657E-3   12.80     0.2755E-2   20.55   
 0.6006E-1  0.1021E-2   12.80     0.3674E-2   20.55   
 0.7508E-1  0.1276E-2   12.80     0.4593E-2   20.55   
 0.9009E-1  0.1531E-2   12.80     0.5512E-2   20.55   
 0.1051     0.1787E-2   12.80     0.6431E-2   20.55   
 0.1201     0.2042E-2   12.81     0.7351E-2   20.55   
 0.1351     0.2298E-2   12.81     0.8270E-2   20.55   
 0.1502     0.2553E-2   12.81     0.9191E-2   20.56   
 0.1652     0.2809E-2   12.81     0.1011E-1   20.56   
 0.1802     0.3064E-2   12.81     0.1103E-1   20.56   
 0.1952     0.3320E-2   12.81     0.1195E-1   20.56   
 0.2102     0.3576E-2   12.81     0.1288E-1   20.56   
 0.2252     0.3831E-2   12.81     0.1380E-1   20.56   
 0.2402     0.4087E-2   12.81     0.1472E-1   20.57   
 0.2553     0.4343E-2   12.81     0.1564E-1   20.57   
 0.2703     0.4599E-2   12.81     0.1657E-1   20.57   
 0.2853     0.4855E-2   12.81     0.1749E-1   20.57   
 0.3003     0.5112E-2   12.81     0.1842E-1   20.58   
 0.3153     0.5368E-2   12.81     0.1935E-1   20.58   
 0.3303     0.5624E-2   12.81     0.2027E-1   20.58   
 0.3453     0.5881E-2   12.81     0.2120E-1   20.59   
 0.3604     0.6138E-2   12.81     0.2213E-1   20.59   
 0.3754     0.6395E-2   12.82     0.2306E-1   20.59   
 0.3904     0.6652E-2   12.82     0.2399E-1   20.60   
 0.4054     0.6909E-2   12.82     0.2492E-1   20.60   
 0.4204     0.7166E-2   12.82     0.2585E-1   20.60   
 0.4354     0.7423E-2   12.82     0.2679E-1   20.61   
 0.4505     0.7681E-2   12.82     0.2772E-1   20.61   
 0.4655     0.7939E-2   12.82     0.2866E-1   20.62   
 0.4805     0.8197E-2   12.82     0.2960E-1   20.62   
 0.4955     0.8455E-2   12.82     0.3053E-1   20.62   
 0.5105     0.8713E-2   12.83     0.3147E-1   20.63   
 0.5255     0.8971E-2   12.83     0.3241E-1   20.63   
 0.5405     0.9230E-2   12.83     0.3336E-1   20.64   
 0.5556     0.9489E-2   12.83     0.3430E-1   20.64   
 0.5706     0.9748E-2   12.83     0.3525E-1   20.65   
 0.5856     0.1001E-1   12.83     0.3619E-1   20.65   
 0.6006     0.1027E-1   12.83     0.3714E-1   20.66   
 0.6156     0.1053E-1   12.84     0.3809E-1   20.67   
 0.6306     0.1079E-1   12.84     0.3904E-1   20.67   
 0.6456     0.1105E-1   12.84     0.3999E-1   20.68   
 0.6607     0.1131E-1   12.84     0.4095E-1   20.68   
 0.6757     0.1157E-1   12.84     0.4190E-1   20.69   
 0.6907     0.1183E-1   12.84     0.4286E-1   20.70   
 0.7057     0.1209E-1   12.85     0.4382E-1   20.70   
 0.7207     0.1235E-1   12.85     0.4478E-1   20.71   
 0.7357     0.1261E-1   12.85     0.4575E-1   20.72   
 0.7508     0.1287E-1   12.85     0.4671E-1   20.72   
 0.7658     0.1314E-1   12.85     0.4768E-1   20.73   
 0.7808     0.1340E-1   12.86     0.4865E-1   20.74   
 0.7958     0.1366E-1   12.86     0.4962E-1   20.74   
 0.8108     0.1392E-1   12.86     0.5059E-1   20.75   
 0.8258     0.1419E-1   12.86     0.5157E-1   20.76   
 0.8408     0.1445E-1   12.86     0.5255E-1   20.77   
 0.8559     0.1472E-1   12.87     0.5353E-1   20.78   
 0.8709     0.1498E-1   12.87     0.5451E-1   20.78   
 0.8859     0.1524E-1   12.87     0.5549E-1   20.79   
 0.9009     0.1551E-1   12.87     0.5648E-1   20.80   
 0.9159     0.1577E-1   12.88     0.5747E-1   20.81   
 0.9309     0.1604E-1   12.88     0.5846E-1   20.82   
 0.9459     0.1631E-1   12.88     0.5946E-1   20.83   
 0.9610     0.1657E-1   12.88     0.6045E-1   20.84   
 0.9760     0.1684E-1   12.89     0.6145E-1   20.84   
 0.9910     0.1711E-1   12.89     0.6245E-1   20.85   
  1.006     0.1737E-1   12.89     0.6346E-1   20.86   
  1.021     0.1764E-1   12.89     0.6447E-1   20.87   
  1.036     0.1791E-1   12.90     0.6548E-1   20.88   
  1.051     0.1818E-1   12.90     0.6649E-1   20.89   
  1.066     0.1845E-1   12.90     0.6750E-1   20.90   
  1.081     0.1872E-1   12.90     0.6852E-1   20.91   
  1.096     0.1899E-1   12.91     0.6955E-1   20.92   
  1.111     0.1926E-1   12.91     0.7057E-1   20.93   
  1.126     0.1953E-1   12.91     0.7160E-1   20.94   
  1.141     0.1980E-1   12.92     0.7263E-1   20.96   
  1.156     0.2007E-1   12.92     0.7366E-1   20.97   
  1.171     0.2034E-1   12.92     0.7470E-1   20.98   
  1.186     0.2061E-1   12.92     0.7574E-1   20.99   
  1.201     0.2089E-1   12.93     0.7678E-1   21.00   
   1.21622    0.02116   12.93111    0.07783   21.01180
   1.23123    0.02143   12.93430    0.07888   21.02351
   1.24625    0.02171   12.93756    0.07993   21.03544
   1.26126    0.02198   12.94090    0.08099   21.04760
   1.27628    0.02226   12.94423    0.08205   21.05975
   1.29129    0.02253   12.94757    0.08312   21.07205
   1.30631    0.02281   12.95090    0.08419   21.08465
   1.32132    0.02309   12.95438    0.08526   21.09740
   1.33634    0.02336   12.95787    0.08633   21.11029
   1.35135    0.02364   12.96135    0.08741   21.12334
   1.36637    0.02392   12.96498    0.08850   21.13653
   1.38138    0.02420   12.96861    0.08958   21.14987
   1.39640    0.02448   12.97225    0.09067   21.16343
   1.41141    0.02476   12.97588    0.09177   21.17707
   1.42643    0.02504   12.97966    0.09287   21.19093
   1.44144    0.02532   12.98336    0.09397   21.20501
   1.45646    0.02560   12.98714    0.09508   21.21916
   1.47147    0.02588   12.99107    0.09619   21.23347
   1.48649    0.02617   12.99500    0.09731   21.24800
   1.50150    0.02645   12.99893    0.09843   21.26274
   1.51652    0.02673   13.00300    0.09956   21.27757
   1.53153    0.02702   13.00693    0.10069   21.29261
   1.54655    0.02730   13.01108    0.10182   21.30780
   1.56156    0.02759   13.01516    0.10296   21.32314
   1.57658    0.02787   13.01938    0.10410   21.33863
   1.59159    0.02816   13.02361    0.10525   21.35435
   1.60661    0.02845   13.02783    0.10640   21.37021
   1.62162    0.02874   13.03198    0.10756   21.38629
   1.63664    0.02903   13.03635    0.10873   21.40259
   1.65165    0.02932   13.04072    0.10989   21.41890
   1.66667    0.02961   13.04525    0.11107   21.43550
   1.68168    0.02990   13.04969    0.11225   21.45225
   1.69670    0.03019   13.05421    0.11343   21.46915
   1.71171    0.03048   13.05873    0.11462   21.48634
   1.72673    0.03077   13.06333    0.11581   21.50353
   1.74174    0.03107   13.06800    0.11701   21.52095
   1.75676    0.03136   13.07267    0.11822   21.53874
   1.77177    0.03166   13.07741    0.11943   21.55645
   1.78679    0.03195   13.08223    0.12065   21.57453
   1.80180    0.03225   13.08704    0.12187   21.59269
   1.81682    0.03255   13.09179    0.12310   21.61115
   1.83183    0.03284   13.09675    0.12433   21.62960
   1.84685    0.03314   13.10164    0.12557   21.64835
   1.86186    0.03344   13.10676    0.12682   21.66740
   1.87688    0.03374   13.11172    0.12807   21.68644
   1.89189    0.03404   13.11676    0.12933   21.70571
   1.90691    0.03435   13.12203    0.13059   21.72535
   1.92192    0.03465   13.12707    0.13186   21.74492
   1.93694    0.03495   13.13248    0.13314   21.76485
   1.95195    0.03526   13.13766    0.13442   21.78486
   1.96697    0.03556   13.14285    0.13571   21.80517
   1.98198    0.03587   13.14826    0.13701   21.82563
   1.99700    0.03618   13.15375    0.13831   21.84623
   2.01201    0.03648   13.15916    0.13962   21.86713
   2.02703    0.03679   13.16464    0.14094   21.88818
   2.04204    0.03710   13.17020    0.14226   21.90945
   2.05706    0.03741   13.17583    0.14359   21.93094
   2.07207    0.03772   13.18146    0.14493   21.95251
   2.08709    0.03804   13.18717    0.14628   21.97444
   2.10210    0.03835   13.19280    0.14763   21.99645
   2.11712    0.03866   13.19858    0.14899   22.01861
   2.13213    0.03898   13.20444    0.15036   22.04107
   2.14715    0.03929   13.21037    0.15173   22.06382
   2.16216    0.03961   13.21630    0.15311   22.08672
   2.17718    0.03993   13.22223    0.15450   22.10970
   2.19219    0.04025   13.22823    0.15590   22.13304
   2.20721    0.04057   13.23431    0.15731   22.15646
   2.22222    0.04089   13.24038    0.15872   22.18018
   2.23724    0.04121   13.24661    0.16015   22.20427
   2.25225    0.04153   13.25284    0.16158   22.22828
   2.26727    0.04186   13.25913    0.16302   22.25266
   2.28228    0.04218   13.26536    0.16446   22.27712
   2.29730    0.04251   13.27173    0.16592   22.30202
   2.31231    0.04283   13.27811    0.16739   22.32707
   2.32733    0.04316   13.28463    0.16886   22.35219
   2.34234    0.04349   13.29100    0.17034   22.37761
   2.35736    0.04382   13.29767    0.17183   22.40333
   2.37237    0.04415   13.30419    0.17333   22.42927
   2.38739    0.04448   13.31086    0.17484   22.45536
   2.40240    0.04482   13.31761    0.17636   22.48167
   2.41742    0.04515   13.32443    0.17789   22.50827
   2.43243    0.04549   13.33125    0.17943   22.53510
   2.44745    0.04582   13.33806    0.18098   22.56215
   2.46246    0.04616   13.34488    0.18253   22.58943
   2.47748    0.04650   13.35177    0.18410   22.61685
   2.49249    0.04684   13.35889    0.18568   22.64457
   2.50751    0.04718   13.36586    0.18727   22.67258
   2.52252    0.04752   13.37297    0.18886   22.70074
   2.53754    0.04787   13.38023    0.19047   22.72928
   2.55255    0.04821   13.38735    0.19209   22.75803
   2.56757    0.04856   13.39461    0.19372   22.78686
   2.58258    0.04891   13.40202    0.19536   22.81599
   2.59760    0.04925   13.40936    0.19701   22.84556
   2.61261    0.04960   13.41677    0.19867   22.87513
   2.62763    0.04996   13.42418    0.20035   22.90515
   2.64264    0.05031   13.43174    0.20203   22.93524
   2.65766    0.05066   13.43930    0.20373   22.96569
   2.67267    0.05102   13.44693    0.20544   22.99638
   2.68769    0.05137   13.45464    0.20715   23.02736
   2.70270    0.05173   13.46235    0.20889   23.05863
   2.71772    0.05209   13.47013    0.21063   23.09006
   2.73273    0.05245   13.47799    0.21238   23.12178
   2.74775    0.05281   13.48599    0.21415   23.15372
   2.76276    0.05318   13.49377    0.21593   23.18596
   2.77778    0.05354   13.50193    0.21772   23.21857
   2.79279    0.05391   13.50993    0.21953   23.25133
   2.80781    0.05427   13.51801    0.22135   23.28445
   2.82282    0.05464   13.52631    0.22318   23.31773
   2.83784    0.05501   13.53439    0.22503   23.35138
   2.85285    0.05539   13.54269    0.22688   23.38524
   2.86787    0.05576   13.55106    0.22875   23.41949
   2.88288    0.05613   13.55951    0.23064   23.45387
   2.89790    0.05651   13.56789    0.23254   23.48871
   2.91291    0.05689   13.57648    0.23445   23.52361
   2.92793    0.05727   13.58501    0.23638   23.55904
   2.94294    0.05765   13.59360    0.23832   23.59469
   2.95796    0.05803   13.60227    0.24028   23.63048
   2.97297    0.05841   13.61109    0.24225   23.66672
   2.98799    0.05880   13.61984    0.24424   23.70326
   3.00300    0.05919   13.62866    0.24624   23.74002
   3.01802    0.05958   13.63763    0.24826   23.77708
   3.03303    0.05997   13.64667    0.25029   23.81443
   3.04805    0.06036   13.65563    0.25234   23.85208
   3.06306    0.06075   13.66475    0.25440   23.89017
   3.07808    0.06115   13.67387    0.25649   23.92856
   3.09309    0.06154   13.68306    0.25858   23.96717
   3.10811    0.06194   13.69232    0.26070   24.00608
   3.12312    0.06234   13.70158    0.26283   24.04529
   3.13814    0.06275   13.71100    0.26498   24.08494
   3.15315    0.06315   13.72041    0.26714   24.12481
   3.16817    0.06356   13.72997    0.26932   24.16505
   3.18318    0.06396   13.73960    0.27152   24.20567
   3.19820    0.06437   13.74916    0.27374   24.24650
   3.21321    0.06478   13.75887    0.27598   24.28771
   3.22823    0.06520   13.76873    0.27823   24.32929
   3.24324    0.06561   13.77844    0.28051   24.37123
   3.25826    0.06603   13.78830    0.28280   24.41355
   3.27327    0.06645   13.79830    0.28511   24.45609
   3.28829    0.06687   13.80831    0.28744   24.49900
   3.30330    0.06729   13.81846    0.28979   24.54229
   3.31832    0.06772   13.82846    0.29216   24.58587
   3.33333    0.06814   13.83869    0.29455   24.62989
   3.34835    0.06857   13.84899    0.29696   24.67443
   3.36336    0.06900   13.85929    0.29939   24.71919
   3.37838    0.06943   13.86960    0.30185   24.76433
   3.39339    0.06987   13.88020    0.30432   24.80976
   3.40841    0.07031   13.89065    0.30682   24.85556
   3.42342    0.07074   13.90117    0.30933   24.90166
   3.43844    0.07119   13.91191    0.31187   24.94835
   3.45345    0.07163   13.92266    0.31443   24.99533
   3.46847    0.07207   13.93333    0.31702   25.04262
   3.48348    0.07252   13.94423    0.31962   25.09042
   3.49850    0.07297   13.95512    0.32226   25.13852
   3.51351    0.07342   13.96609    0.32491   25.18699
   3.52853    0.07388   13.97713    0.32759   25.23598
   3.54354    0.07433   13.98825    0.33029   25.28534
   3.55856    0.07479   13.99944    0.33302   25.33514
   3.57357    0.07525   14.01078    0.33577   25.38516
   3.58859    0.07571   14.02205    0.33855   25.43586
   3.60360    0.07618   14.03346    0.34135   25.48670
   3.61862    0.07665   14.04495    0.34418   25.53821
   3.63363    0.07712   14.05651    0.34704   25.58994
   3.64865    0.07759   14.06814    0.34992   25.64226
   3.66366    0.07806   14.07971    0.35283   25.69488
   3.67868    0.07854   14.09142    0.35576   25.74809
   3.69369    0.07902   14.10335    0.35873   25.80168
   3.70871    0.07950   14.11520    0.36172   25.85563
   3.72372    0.07999   14.12721    0.36474   25.91025
   3.73874    0.08048   14.13929    0.36780   25.96509
   3.75375    0.08097   14.15145    0.37088   26.02053
   3.76877    0.08146   14.16360    0.37399   26.07634
   3.78378    0.08195   14.17575    0.37713   26.13259
   3.79880    0.08245   14.18806    0.38030   26.18943
   3.81381    0.08295   14.20051    0.38350   26.24664
   3.82883    0.08345   14.21296    0.38674   26.30445
   3.84384    0.08396   14.22563    0.39000   26.36271
   3.85886    0.08447   14.23823    0.39330   26.42148
   3.87387    0.08498   14.25098    0.39663   26.48069
   3.88889    0.08549   14.26373    0.40000   26.54043
   3.90390    0.08601   14.27655    0.40340   26.60068
   3.91892    0.08653   14.28959    0.40683   26.66138
   3.93393    0.08705   14.30264    0.41030   26.72274
   3.94895    0.08758   14.31568    0.41381   26.78441
   3.96396    0.08811   14.32887    0.41735   26.84673
   3.97898    0.08864   14.34221    0.42093   26.90958
   3.99399    0.08917   14.35555    0.42454   26.97302
   4.00901    0.08971   14.36897    0.42819   27.03683
   4.02402    0.09025   14.38245    0.43188   27.10138
   4.03904    0.09080   14.39609    0.43561   27.16645
   4.05405    0.09134   14.40965    0.43938   27.23197
   4.06907    0.09189   14.42344    0.44319   27.29823
   4.08408    0.09244   14.43722    0.44704   27.36500
   4.09910    0.09300   14.45123    0.45093   27.43229
   4.11411    0.09356   14.46516    0.45487   27.50026
   4.12913    0.09412   14.47917    0.45884   27.56866
   4.14414    0.09469   14.49340    0.46286   27.63773
   4.15916    0.09526   14.50770    0.46693   27.70740
   4.17417    0.09583   14.52201    0.47103   27.77781
   4.18919    0.09641   14.53639    0.47519   27.84866
   4.20420    0.09699   14.55099    0.47939   27.92018
   4.21922    0.09757   14.56544    0.48363   27.99244
   4.23423    0.09816   14.58026    0.48792   28.06521
   4.24925    0.09875   14.59501    0.49227   28.13873
   4.26426    0.09934   14.60990    0.49666   28.21292
   4.27928    0.09994   14.62480    0.50110   28.28762
   4.29429    0.10054   14.63985    0.50559   28.36307
   4.30931    0.10114   14.65496    0.51013   28.43941
   4.32432    0.10175   14.67031    0.51472   28.51626
   4.33934    0.10236   14.68550    0.51937   28.59378
   4.35435    0.10298   14.70099    0.52407   28.67197
   4.36937    0.10360   14.71648    0.52883   28.75090
   4.38438    0.10422   14.73212    0.53364   28.83057
   4.39940    0.10485   14.74768    0.53851   28.91091
   4.41441    0.10548   14.76347    0.54344   28.99191
   4.42943    0.10612   14.77940    0.54842   29.07381
   4.44444    0.10676   14.79533    0.55347   29.15637
   4.45946    0.10740   14.81142    0.55857   29.23975
   4.47447    0.10805   14.82757    0.56374   29.32379
   4.48949    0.10870   14.84380    0.56897   29.40872
   4.50450    0.10936   14.86018    0.57426   29.49439
   4.51952    0.11002   14.87663    0.57962   29.58096
   4.53453    0.11068   14.89331    0.58504   29.66826
   4.54955    0.11135   14.90991    0.59053   29.75624
   4.56456    0.11202   14.92659    0.59609   29.84517
   4.57958    0.11270   14.94348    0.60171   29.93499
   4.59459    0.11339   14.96046    0.60741   30.02563
   4.60961    0.11407   14.97750    0.61318   30.11709
   4.62462    0.11476   14.99470    0.61902   30.20936
   4.63964    0.11546   15.01196    0.62494   30.30259
   4.65465    0.11616   15.02931    0.63093   30.39671
   4.66967    0.11687   15.04680    0.63700   30.49165
   4.68468    0.11758   15.06444    0.64315   30.58770
   4.69970    0.11829   15.08207    0.64937   30.68442
   4.71472    0.11901   15.09986    0.65568   30.78239
   4.72973    0.11974   15.11780    0.66207   30.88111
   4.74474    0.12047   15.13588    0.66854   30.98087
   4.75976    0.12120   15.15396    0.67510   31.08151
   4.77478    0.12194   15.17219    0.68175   31.18319
   4.78979    0.12269   15.19057    0.68849   31.28591
   4.80480    0.12344   15.20910    0.69531   31.38960
   4.81982    0.12420   15.22763    0.70223   31.49424
   4.83483    0.12496   15.24638    0.70924   31.59992
   4.84985    0.12573   15.26521    0.71635   31.70680
   4.86487    0.12650   15.28410    0.72355   31.81463
   4.87988    0.12728   15.30308    0.73085   31.92365
   4.89490    0.12806   15.32235    0.73826   32.03371
   4.90991    0.12885   15.34154    0.74576   32.14480
   4.92492    0.12964   15.36089    0.75338   32.25723
   4.93994    0.13044   15.38045    0.76109   32.37054
   4.95496    0.13125   15.40009    0.76892   32.48512
   4.96997    0.13206   15.41973    0.77686   32.60111
   4.98499    0.13288   15.43974    0.78491   32.71820
