#                                                           
#   __   __     _        __  __       ____      U  ___  u   
#   \ \ / / U  /"\  U u |" \/ "| u U | __") u    \/"_ \/    
#    \ V /   \/ _ \/   \| |\/| |/   \|  _ \/     | | | |    
#   U_|"|_u  / ___ \    | |  | |     | |_) | .-,_| |_| |    
#     |_|   /_/   \_\   |_|  |_|     |____/   \_)-\___/     
# .-,//|(_   \\    >>  <<,-,,-.     _|| \\_        \\       
#  \_) (__) (__)  (__)  (./  \.)   (__) (__)      (__)      
#                                                           
#                                                           
#        Version 4.3.0 Revision 15624 Hash 7ed12fb          
#                      MPI+SLK Build                        
#                http://www.yambo-code.org                  
#
# EELS @ Q(1)  [q->0 direction]:0.1000E-4  0.000     0.000   
#
#
# - Energies      are  Analyt. E
# - Wavefunctions are Teter 93(XC)
#
# - The Green`s function is Retarded -
# - Using the Length Gauge -
# - [r,Vnl] *is* included -
#
#   BSK|Identifier              :3973
#      |Dimension               :49
#      |Bands                   :1 - 50
#      |Exchange           [res]: yes
#      |Correlation        [res]: no
#      |Kernel`s coupling       : no
#      |Exchange           [cpl]: no
#      |Correlation        [cpl]: no
#      |W interaction is bare   : no
#      |ALDA kernel in R-space  : no
#      |RL vectors    [exchange]:4067
#      |E/h energy range    [ev]:-1.000000 - -1.000000
#      |Coupling range     [o/o]: 100.0000 -  100.0000
#
#    E/ev[1]      EEL-Im[2]    EEL-Re[3]    EELo-Im[4]   EELo-Re[5]
#
    0.000000    -0.000000    -0.988778    -0.000000    -0.987322
   0.2002E-1    0.7294E-7    -.9888       0.1023E-6    -.9873   
   0.4004E-1    0.1459E-6    -.9888       0.2045E-6    -.9873   
   0.6006E-1    0.2188E-6    -.9888       0.3068E-6    -.9873   
   0.8008E-1    0.2918E-6    -.9888       0.4091E-6    -.9873   
   0.1001       0.3647E-6    -.9888       0.5114E-6    -.9873   
   0.1201       0.4377E-6    -.9888       0.6137E-6    -.9873   
   0.1401       0.5107E-6    -.9888       0.7160E-6    -.9873   
   0.1602       0.5836E-6    -.9888       0.8182E-6    -.9873   
   0.1802       0.6566E-6    -.9888       0.9206E-6    -.9873   
   0.2002       0.7296E-6    -.9888       0.1023E-5    -.9873   
   0.2202       0.8025E-6    -.9888       0.1125E-5    -.9873   
   0.2402       0.8755E-6    -.9888       0.1228E-5    -.9873   
   0.2603       0.9485E-6    -.9888       0.1330E-5    -.9873   
   0.2803       0.1022E-5    -.9888       0.1432E-5    -.9873   
   0.3003       0.1095E-5    -.9888       0.1535E-5    -.9873   
   0.3203       0.1168E-5    -.9888       0.1637E-5    -.9873   
   0.3403       0.1241E-5    -.9888       0.1739E-5    -.9873   
   0.3604       0.1314E-5    -.9888       0.1842E-5    -.9873   
   0.3804       0.1387E-5    -.9888       0.1944E-5    -.9873   
   0.4004       0.1460E-5    -.9888       0.2047E-5    -.9873   
   0.4204       0.1533E-5    -.9888       0.2149E-5    -.9873   
   0.4404       0.1606E-5    -.9888       0.2252E-5    -.9873   
   0.4605       0.1679E-5    -.9888       0.2354E-5    -.9873   
   0.4805       0.1752E-5    -.9888       0.2457E-5    -.9873   
   0.5005       0.1825E-5    -.9888       0.2559E-5    -.9873   
   0.5205       0.1898E-5    -.9888       0.2662E-5    -.9873   
   0.5405       0.1972E-5    -.9888       0.2765E-5    -.9873   
   0.5606       0.2045E-5    -.9888       0.2867E-5    -.9873   
   0.5806       0.2118E-5    -.9888       0.2970E-5    -.9873   
   0.6006       0.2191E-5    -.9888       0.3073E-5    -.9873   
   0.6206       0.2264E-5    -.9888       0.3176E-5    -.9873   
   0.6406       0.2338E-5    -.9888       0.3278E-5    -.9873   
   0.6607       0.2411E-5    -.9888       0.3381E-5    -.9873   
   0.6807       0.2484E-5    -.9888       0.3484E-5    -.9873   
   0.7007       0.2557E-5    -.9888       0.3587E-5    -.9873   
   0.7207       0.2631E-5    -.9888       0.3690E-5    -.9873   
   0.7407       0.2704E-5    -.9888       0.3793E-5    -.9873   
   0.7608       0.2778E-5    -.9888       0.3896E-5    -.9873   
   0.7808       0.2851E-5    -.9888       0.3999E-5    -.9873   
   0.8008       0.2924E-5    -.9888       0.4102E-5    -.9873   
   0.8208       0.2998E-5    -.9888       0.4205E-5    -.9873   
   0.8408       0.3071E-5    -.9888       0.4308E-5    -.9873   
   0.8609       0.3145E-5    -.9888       0.4411E-5    -.9873   
   0.8809       0.3218E-5    -.9888       0.4515E-5    -.9873   
   0.9009       0.3292E-5    -.9888       0.4618E-5    -.9873   
   0.9209       0.3366E-5    -.9888       0.4721E-5    -.9873   
   0.9409       0.3439E-5    -.9888       0.4825E-5    -.9873   
   0.9610       0.3513E-5    -.9888       0.4928E-5    -.9873   
   0.9810       0.3586E-5    -.9888       0.5032E-5    -.9873   
    1.001       0.3660E-5    -.9888       0.5135E-5    -.9873   
    1.021       0.3734E-5    -.9888       0.5239E-5    -.9873   
    1.041       0.3808E-5    -.9888       0.5342E-5    -.9873   
    1.061       0.3881E-5    -.9888       0.5446E-5    -.9873   
    1.081       0.3955E-5    -.9888       0.5550E-5    -.9873   
    1.101       0.4029E-5    -.9888       0.5654E-5    -.9873   
    1.121       0.4103E-5    -.9888       0.5757E-5    -.9873   
    1.141       0.4177E-5    -.9888       0.5861E-5    -.9873   
    1.161       0.4251E-5    -.9888       0.5965E-5    -.9873   
    1.181       0.4325E-5    -.9888       0.6069E-5    -.9873   
    1.201       0.4399E-5    -.9888       0.6174E-5    -.9873   
    1.221       0.4473E-5    -.9888       0.6278E-5    -.9873   
    1.241       0.4547E-5    -.9887       0.6382E-5    -.9873   
    1.261       0.4621E-5    -.9887       0.6486E-5    -.9873   
    1.281       0.4696E-5    -.9887       0.6591E-5    -.9873   
    1.301       0.4770E-5    -.9887       0.6695E-5    -.9873   
    1.321       0.4844E-5    -.9887       0.6800E-5    -.9873   
    1.341       0.4918E-5    -.9887       0.6904E-5    -.9873   
    1.361       0.4993E-5    -.9887       0.7009E-5    -.9873   
    1.381       0.5067E-5    -.9887       0.7114E-5    -.9873   
    1.401       0.5142E-5    -.9887       0.7218E-5    -.9873   
    1.421       0.5216E-5    -.9887       0.7323E-5    -.9873   
    1.441       0.5291E-5    -.9887       0.7428E-5    -.9873   
    1.461       0.5365E-5    -.9887       0.7533E-5    -.9873   
    1.481       0.5440E-5    -.9887       0.7638E-5    -.9873   
    1.502       0.5515E-5    -.9887       0.7743E-5    -.9873   
    1.522       0.5589E-5    -.9887       0.7849E-5    -.9873   
    1.542       0.5664E-5    -.9887       0.7954E-5    -.9873   
    1.562       0.5739E-5    -.9887       0.8059E-5    -.9873   
    1.582       0.5814E-5    -.9887       0.8165E-5    -.9873   
    1.602       0.5889E-5    -.9887       0.8270E-5    -.9873   
    1.622       0.5964E-5    -.9887       0.8376E-5    -.9873   
    1.642       0.6039E-5    -.9887       0.8482E-5    -.9873   
    1.662       0.6114E-5    -.9887       0.8588E-5    -.9873   
    1.682       0.6189E-5    -.9887       0.8694E-5    -.9872   
    1.702       0.6264E-5    -.9887       0.8800E-5    -.9872   
    1.722       0.6339E-5    -.9887       0.8906E-5    -.9872   
    1.742       0.6415E-5    -.9887       0.9012E-5    -.9872   
    1.762       0.6490E-5    -.9887       0.9118E-5    -.9872   
    1.782       0.6565E-5    -.9887       0.9225E-5    -.9872   
    1.802       0.6641E-5    -.9887       0.9331E-5    -.9872   
    1.822       0.6716E-5    -.9887       0.9438E-5    -.9872   
    1.842       0.6792E-5    -.9887       0.9544E-5    -.9872   
    1.862       0.6868E-5    -.9887       0.9651E-5    -.9872   
    1.882       0.6943E-5    -.9887       0.9758E-5    -.9872   
    1.902       0.7019E-5    -.9887       0.9865E-5    -.9872   
    1.922       0.7095E-5    -.9887       0.9972E-5    -.9872   
    1.942       0.7171E-5    -.9887       0.1008E-4    -.9872   
    1.962       0.7247E-5    -.9887       0.1019E-4    -.9872   
    1.982       0.7323E-5    -.9887       0.1029E-4    -.9872   
    2.002       0.7399E-5    -.9887       0.1040E-4    -.9872   
    2.022       0.7475E-5    -.9887       0.1051E-4    -.9872   
    2.042       0.7551E-5    -.9887       0.1062E-4    -.9872   
    2.062       0.7627E-5    -.9887       0.1072E-4    -.9872   
    2.082       0.7704E-5    -.9887       0.1083E-4    -.9872   
    2.102       0.7780E-5    -.9887       0.1094E-4    -.9872   
    2.122       0.7856E-5    -.9887       0.1105E-4    -.9872   
    2.142       0.7933E-5    -.9887       0.1116E-4    -.9872   
    2.162       0.8010E-5    -.9887       0.1127E-4    -.9872   
    2.182       0.8086E-5    -.9887       0.1137E-4    -.9872   
    2.202       0.8163E-5    -.9887       0.1148E-4    -.9872   
    2.222       0.8240E-5    -.9887       0.1159E-4    -.9872   
    2.242       0.8317E-5    -.9887       0.1170E-4    -.9872   
    2.262       0.8394E-5    -.9887       0.1181E-4    -.9872   
    2.282       0.8471E-5    -.9887       0.1192E-4    -.9872   
    2.302       0.8548E-5    -.9887       0.1203E-4    -.9872   
    2.322       0.8625E-5    -.9887       0.1214E-4    -.9872   
    2.342       0.8702E-5    -.9887       0.1225E-4    -.9872   
    2.362       0.8780E-5    -.9887       0.1236E-4    -.9872   
    2.382       0.8857E-5    -.9887       0.1247E-4    -.9872   
    2.402       0.8934E-5    -.9887       0.1258E-4    -.9872   
    2.422       0.9012E-5    -.9887       0.1269E-4    -.9872   
    2.442       0.9090E-5    -.9887       0.1280E-4    -.9872   
    2.462       0.9167E-5    -.9887       0.1291E-4    -.9872   
    2.482       0.9245E-5    -.9887       0.1302E-4    -.9872   
    2.503       0.9323E-5    -.9887       0.1313E-4    -.9872   
    2.523       0.9401E-5    -.9887       0.1324E-4    -.9872   
    2.543       0.9479E-5    -.9887       0.1335E-4    -.9872   
    2.563       0.9557E-5    -.9887       0.1346E-4    -.9872   
    2.583       0.9635E-5    -.9887       0.1357E-4    -.9871   
    2.603       0.9714E-5    -.9887       0.1368E-4    -.9871   
    2.623       0.9792E-5    -.9887       0.1379E-4    -.9871   
    2.643       0.9870E-5    -.9886       0.1390E-4    -.9871   
    2.663       0.9949E-5    -.9886       0.1402E-4    -.9871   
    2.683       0.1003E-4    -.9886       0.1413E-4    -.9871   
    2.703       0.1011E-4    -.9886       0.1424E-4    -.9871   
    2.723       0.1019E-4    -.9886       0.1435E-4    -.9871   
    2.743       0.1026E-4    -.9886       0.1446E-4    -.9871   
    2.763       0.1034E-4    -.9886       0.1458E-4    -.9871   
    2.783       0.1042E-4    -.9886       0.1469E-4    -.9871   
    2.803       0.1050E-4    -.9886       0.1480E-4    -.9871   
    2.823       0.1058E-4    -.9886       0.1492E-4    -.9871   
    2.843       0.1066E-4    -.9886       0.1503E-4    -.9871   
    2.863       0.1074E-4    -.9886       0.1514E-4    -.9871   
    2.883       0.1082E-4    -.9886       0.1525E-4    -.9871   
    2.903       0.1090E-4    -.9886       0.1537E-4    -.9871   
    2.923       0.1098E-4    -.9886       0.1548E-4    -.9871   
    2.943       0.1106E-4    -.9886       0.1560E-4    -.9871   
    2.963       0.1114E-4    -.9886       0.1571E-4    -.9871   
    2.983       0.1122E-4    -.9886       0.1582E-4    -.9871   
    3.003       0.1130E-4    -.9886       0.1594E-4    -.9871   
    3.023       0.1138E-4    -.9886       0.1605E-4    -.9871   
    3.043       0.1146E-4    -.9886       0.1617E-4    -.9871   
    3.063       0.1154E-4    -.9886       0.1628E-4    -.9871   
    3.083       0.1162E-4    -.9886       0.1640E-4    -.9871   
    3.103       0.1170E-4    -.9886       0.1651E-4    -.9871   
    3.123       0.1178E-4    -.9886       0.1663E-4    -.9871   
    3.143       0.1186E-4    -.9886       0.1674E-4    -.9871   
    3.163       0.1194E-4    -.9886       0.1686E-4    -.9871   
    3.183       0.1202E-4    -.9886       0.1698E-4    -.9871   
    3.203       0.1211E-4    -.9886       0.1709E-4    -.9871   
    3.223       0.1219E-4    -.9886       0.1721E-4    -.9871   
    3.243       0.1227E-4    -.9886       0.1733E-4    -.9870   
    3.263       0.1235E-4    -.9886       0.1744E-4    -.9870   
    3.283       0.1243E-4    -.9886       0.1756E-4    -.9870   
    3.303       0.1251E-4    -.9886       0.1768E-4    -.9870   
    3.323       0.1260E-4    -.9886       0.1779E-4    -.9870   
    3.343       0.1268E-4    -.9886       0.1791E-4    -.9870   
    3.363       0.1276E-4    -.9886       0.1803E-4    -.9870   
    3.383       0.1284E-4    -.9886       0.1815E-4    -.9870   
    3.403       0.1292E-4    -.9886       0.1826E-4    -.9870   
    3.423       0.1301E-4    -.9886       0.1838E-4    -.9870   
    3.443       0.1309E-4    -.9886       0.1850E-4    -.9870   
    3.463       0.1317E-4    -.9886       0.1862E-4    -.9870   
    3.483       0.1325E-4    -.9886       0.1874E-4    -.9870   
    3.504       0.1334E-4    -.9885       0.1886E-4    -.9870   
    3.524       0.1342E-4    -.9885       0.1898E-4    -.9870   
    3.544       0.1350E-4    -.9885       0.1910E-4    -.9870   
    3.564       0.1359E-4    -.9885       0.1922E-4    -.9870   
    3.584       0.1367E-4    -.9885       0.1934E-4    -.9870   
    3.604       0.1375E-4    -.9885       0.1946E-4    -.9870   
    3.624       0.1384E-4    -.9885       0.1958E-4    -.9870   
    3.644       0.1392E-4    -.9885       0.1970E-4    -.9870   
    3.664       0.1401E-4    -.9885       0.1982E-4    -.9870   
    3.684       0.1409E-4    -.9885       0.1994E-4    -.9870   
    3.704       0.1417E-4    -.9885       0.2006E-4    -.9870   
    3.724       0.1426E-4    -.9885       0.2018E-4    -.9870   
    3.744       0.1434E-4    -.9885       0.2030E-4    -.9870   
    3.764       0.1443E-4    -.9885       0.2042E-4    -.9869   
    3.784       0.1451E-4    -.9885       0.2055E-4    -.9869   
    3.804       0.1460E-4    -.9885       0.2067E-4    -.9869   
    3.824       0.1468E-4    -.9885       0.2079E-4    -.9869   
    3.844       0.1477E-4    -.9885       0.2091E-4    -.9869   
    3.864       0.1485E-4    -.9885       0.2104E-4    -.9869   
    3.884       0.1494E-4    -.9885       0.2116E-4    -.9869   
    3.904       0.1502E-4    -.9885       0.2128E-4    -.9869   
    3.924       0.1511E-4    -.9885       0.2141E-4    -.9869   
    3.944       0.1519E-4    -.9885       0.2153E-4    -.9869   
    3.964       0.1528E-4    -.9885       0.2166E-4    -.9869   
    3.984       0.1537E-4    -.9885       0.2178E-4    -.9869   
    4.004       0.1545E-4    -.9885       0.2191E-4    -.9869   
    4.024       0.1554E-4    -.9885       0.2203E-4    -.9869   
    4.044       0.1563E-4    -.9885       0.2216E-4    -.9869   
    4.064       0.1571E-4    -.9885       0.2228E-4    -.9869   
    4.084       0.1580E-4    -.9885       0.2241E-4    -.9869   
    4.104       0.1589E-4    -.9885       0.2253E-4    -.9869   
    4.124       0.1597E-4    -.9885       0.2266E-4    -.9869   
    4.144       0.1606E-4    -.9885       0.2279E-4    -.9869   
    4.164       0.1615E-4    -.9885       0.2291E-4    -.9869   
    4.184       0.1624E-4    -.9884       0.2304E-4    -.9869   
    4.204       0.1632E-4    -.9884       0.2317E-4    -.9869   
    4.224       0.1641E-4    -.9884       0.2329E-4    -.9868   
    4.244       0.1650E-4    -.9884       0.2342E-4    -.9868   
    4.264       0.1659E-4    -.9884       0.2355E-4    -.9868   
    4.284       0.1668E-4    -.9884       0.2368E-4    -.9868   
    4.304       0.1676E-4    -.9884       0.2381E-4    -.9868   
    4.324       0.1685E-4    -.9884       0.2394E-4    -.9868   
    4.344       0.1694E-4    -.9884       0.2406E-4    -.9868   
    4.364       0.1703E-4    -.9884       0.2419E-4    -.9868   
    4.384       0.1712E-4    -.9884       0.2432E-4    -.9868   
    4.404       0.1721E-4    -.9884       0.2445E-4    -.9868   
    4.424       0.1730E-4    -.9884       0.2458E-4    -.9868   
    4.444       0.1739E-4    -.9884       0.2471E-4    -.9868   
    4.464       0.1748E-4    -.9884       0.2485E-4    -.9868   
    4.484       0.1757E-4    -.9884       0.2498E-4    -.9868   
    4.505       0.1766E-4    -.9884       0.2511E-4    -.9868   
    4.525       0.1775E-4    -.9884       0.2524E-4    -.9868   
    4.545       0.1784E-4    -.9884       0.2537E-4    -.9868   
    4.565       0.1793E-4    -.9884       0.2550E-4    -.9868   
    4.585       0.1802E-4    -.9884       0.2564E-4    -.9868   
    4.605       0.1811E-4    -.9884       0.2577E-4    -.9868   
    4.625       0.1820E-4    -.9884       0.2590E-4    -.9868   
    4.645       0.1829E-4    -.9884       0.2604E-4    -.9867   
    4.665       0.1838E-4    -.9884       0.2617E-4    -.9867   
    4.685       0.1848E-4    -.9884       0.2630E-4    -.9867   
    4.705       0.1857E-4    -.9884       0.2644E-4    -.9867   
    4.725       0.1866E-4    -.9884       0.2657E-4    -.9867   
    4.745       0.1875E-4    -.9884       0.2671E-4    -.9867   
    4.765       0.1884E-4    -.9883       0.2684E-4    -.9867   
    4.785       0.1894E-4    -.9883       0.2698E-4    -.9867   
    4.805       0.1903E-4    -.9883       0.2711E-4    -.9867   
    4.825       0.1912E-4    -.9883       0.2725E-4    -.9867   
    4.845       0.1922E-4    -.9883       0.2739E-4    -.9867   
    4.865       0.1931E-4    -.9883       0.2752E-4    -.9867   
    4.885       0.1940E-4    -.9883       0.2766E-4    -.9867   
    4.905       0.1950E-4    -.9883       0.2780E-4    -.9867   
    4.925       0.1959E-4    -.9883       0.2794E-4    -.9867   
    4.945       0.1968E-4    -.9883       0.2808E-4    -.9867   
    4.965       0.1978E-4    -.9883       0.2821E-4    -.9867   
    4.985       0.1987E-4    -.9883       0.2835E-4    -.9867   
    5.005       0.1997E-4    -.9883       0.2849E-4    -.9866   
    5.025       0.2006E-4    -.9883       0.2863E-4    -.9866   
    5.045       0.2016E-4    -.9883       0.2877E-4    -.9866   
    5.065       0.2025E-4    -.9883       0.2891E-4    -.9866   
    5.085       0.2035E-4    -.9883       0.2905E-4    -.9866   
    5.105       0.2044E-4    -.9883       0.2919E-4    -.9866   
    5.125       0.2054E-4    -.9883       0.2933E-4    -.9866   
    5.145       0.2064E-4    -.9883       0.2948E-4    -.9866   
    5.165       0.2073E-4    -.9883       0.2962E-4    -.9866   
    5.185       0.2083E-4    -.9883       0.2976E-4    -.9866   
    5.205       0.2093E-4    -.9883       0.2990E-4    -.9866   
    5.225       0.2102E-4    -.9883       0.3005E-4    -.9866   
    5.245       0.2112E-4    -.9883       0.3019E-4    -.9866   
    5.265       0.2122E-4    -.9882       0.3033E-4    -.9866   
    5.285       0.2132E-4    -.9882       0.3048E-4    -.9866   
    5.305       0.2141E-4    -.9882       0.3062E-4    -.9866   
    5.325       0.2151E-4    -.9882       0.3077E-4    -.9866   
    5.345       0.2161E-4    -.9882       0.3091E-4    -.9865   
    5.365       0.2171E-4    -.9882       0.3106E-4    -.9865   
    5.385       0.2181E-4    -.9882       0.3120E-4    -.9865   
    5.405       0.2190E-4    -.9882       0.3135E-4    -.9865   
    5.425       0.2200E-4    -.9882       0.3150E-4    -.9865   
    5.445       0.2210E-4    -.9882       0.3164E-4    -.9865   
    5.465       0.2220E-4    -.9882       0.3179E-4    -.9865   
    5.485       0.2230E-4    -.9882       0.3194E-4    -.9865   
    5.506       0.2240E-4    -.9882       0.3209E-4    -.9865   
    5.526       0.2250E-4    -.9882       0.3224E-4    -.9865   
    5.546       0.2260E-4    -.9882       0.3239E-4    -.9865   
    5.566       0.2270E-4    -.9882       0.3254E-4    -.9865   
    5.586       0.2280E-4    -.9882       0.3269E-4    -.9865   
    5.606       0.2291E-4    -.9882       0.3284E-4    -.9865   
    5.626       0.2301E-4    -.9882       0.3299E-4    -.9865   
