#                                                           
#  ____  ____     _       ____    ____  ______      ___     
# |_  _||_  _|   / \     |_   \  /   _||_   _ \   ."   `.   
#   \ \  / /    / _ \      |   \/   |    | |_) | /  .-.  \  
#    \ \/ /    / ___ \     | |\  /| |    |  __". | |   | |  
#    _|  |_  _/ /   \ \_  _| |_\/_| |_  _| |__) |\  `-"  /  
#   |______||____| |____||_____||_____||_______/  `.___."   
#                                                           
#                                                           
#                                                           
#        Version 4.2.0 Revision 14319 Hash 8432f48          
#                   MPI+SLK+OpenMP Build                    
#                http://www.yambo-code.org                  
#
# Polarizability ( -<<X>> ) [volume @ Q(1) [q->0 direction]0.1000E-4  0.000     0.000   
#
#
# - Energies      are Teter 93(XC)
# - Wavefunctions are Teter 93(XC)
#
# - The Green`s function is Retarded -
# - Using the Length Gauge -
# - [r,Vnl] *is* included -
#
#   BSK|Identifier              :3730
#      |Dimension               :199
#      |Bands                   :1 - 200
#      |Exchange           [res]: yes
#      |Correlation        [res]: no
#      |Kernel`s coupling       : no
#      |Exchange           [cpl]: no
#      |Correlation        [cpl]: no
#      |W interaction is bare   : no
#      |ALDA kernel in R-space  : yes
#      |RL vectors    [exchange]:9045
#      |E/h energy range    [ev]:-1.000000 - -1.000000
#      |Coupling range     [o/o]: 100.0000 -  100.0000
#
#  E/ev[1]    ALPHA-Im[2]ALPHA-Re[3]ALPHAo-Im[4ALPHAo-Re[5]
#
   0.00000    0.00000   14.94912    0.00000   20.54934
 0.1502E-1  0.3848E-3   14.95     0.9184E-3   20.55   
 0.3003E-1  0.7697E-3   14.95     0.1837E-2   20.55   
 0.4505E-1  0.1155E-2   14.95     0.2755E-2   20.55   
 0.6006E-1  0.1539E-2   14.95     0.3674E-2   20.55   
 0.7508E-1  0.1924E-2   14.95     0.4593E-2   20.55   
 0.9009E-1  0.2309E-2   14.95     0.5512E-2   20.55   
 0.1051     0.2694E-2   14.95     0.6431E-2   20.55   
 0.1201     0.3080E-2   14.95     0.7351E-2   20.55   
 0.1351     0.3465E-2   14.95     0.8270E-2   20.55   
 0.1502     0.3850E-2   14.95     0.9191E-2   20.56   
 0.1652     0.4235E-2   14.95     0.1011E-1   20.56   
 0.1802     0.4621E-2   14.95     0.1103E-1   20.56   
 0.1952     0.5006E-2   14.95     0.1195E-1   20.56   
 0.2102     0.5392E-2   14.95     0.1288E-1   20.56   
 0.2252     0.5778E-2   14.96     0.1380E-1   20.56   
 0.2402     0.6164E-2   14.96     0.1472E-1   20.57   
 0.2553     0.6550E-2   14.96     0.1564E-1   20.57   
 0.2703     0.6937E-2   14.96     0.1657E-1   20.57   
 0.2853     0.7323E-2   14.96     0.1749E-1   20.57   
 0.3003     0.7710E-2   14.96     0.1842E-1   20.58   
 0.3153     0.8097E-2   14.96     0.1935E-1   20.58   
 0.3303     0.8484E-2   14.96     0.2027E-1   20.58   
 0.3453     0.8871E-2   14.96     0.2120E-1   20.59   
 0.3604     0.9259E-2   14.97     0.2213E-1   20.59   
 0.3754     0.9647E-2   14.97     0.2306E-1   20.59   
 0.3904     0.1003E-1   14.97     0.2399E-1   20.60   
 0.4054     0.1042E-1   14.97     0.2492E-1   20.60   
 0.4204     0.1081E-1   14.97     0.2585E-1   20.60   
 0.4354     0.1120E-1   14.97     0.2679E-1   20.61   
 0.4505     0.1159E-1   14.98     0.2772E-1   20.61   
 0.4655     0.1198E-1   14.98     0.2866E-1   20.62   
 0.4805     0.1237E-1   14.98     0.2960E-1   20.62   
 0.4955     0.1276E-1   14.98     0.3053E-1   20.62   
 0.5105     0.1315E-1   14.98     0.3147E-1   20.63   
 0.5255     0.1354E-1   14.98     0.3241E-1   20.63   
 0.5405     0.1393E-1   14.99     0.3336E-1   20.64   
 0.5556     0.1432E-1   14.99     0.3430E-1   20.64   
 0.5706     0.1471E-1   14.99     0.3525E-1   20.65   
 0.5856     0.1511E-1   14.99     0.3619E-1   20.65   
 0.6006     0.1550E-1   15.00     0.3714E-1   20.66   
 0.6156     0.1589E-1   15.00     0.3809E-1   20.67   
 0.6306     0.1629E-1   15.00     0.3904E-1   20.67   
 0.6456     0.1668E-1   15.00     0.3999E-1   20.68   
 0.6607     0.1707E-1   15.01     0.4095E-1   20.68   
 0.6757     0.1747E-1   15.01     0.4190E-1   20.69   
 0.6907     0.1786E-1   15.01     0.4286E-1   20.70   
 0.7057     0.1826E-1   15.01     0.4382E-1   20.70   
 0.7207     0.1866E-1   15.02     0.4478E-1   20.71   
 0.7357     0.1905E-1   15.02     0.4575E-1   20.72   
 0.7508     0.1945E-1   15.02     0.4671E-1   20.72   
 0.7658     0.1985E-1   15.02     0.4768E-1   20.73   
 0.7808     0.2024E-1   15.03     0.4865E-1   20.74   
 0.7958     0.2064E-1   15.03     0.4962E-1   20.74   
   0.81081    0.02104   15.03390    0.05059   20.75226
   0.82583    0.02144   15.03709    0.05157   20.76004
   0.84084    0.02184   15.04027    0.05255   20.76775
   0.85586    0.02224   15.04361    0.05353   20.77575
   0.87087    0.02265   15.04694    0.05451   20.78383
   0.88589    0.02305   15.05043    0.05549   20.79213
   0.90090    0.02345   15.05391    0.05648   20.80043
   0.91592    0.02385   15.05747    0.05747   20.80903
   0.93093    0.02426   15.06110    0.05846   20.81777
   0.94595    0.02466   15.06473    0.05946   20.82667
   0.96096    0.02507   15.06851    0.06045   20.83556
   0.97598    0.02547   15.07229    0.06145   20.84475
   0.99099    0.02588   15.07615    0.06245   20.85401
   1.00601    0.02629   15.08007    0.06346   20.86350
   1.02102    0.02669   15.08400    0.06447   20.87306
   1.03604    0.02710   15.08800    0.06548   20.88284
   1.05105    0.02751   15.09208    0.06649   20.89270
   1.06607    0.02792   15.09630    0.06750   20.90278
   1.08108    0.02833   15.10045    0.06852   20.91293
   1.09610    0.02874   15.10483    0.06955   20.92338
   1.11111    0.02916   15.10913    0.07057   20.93383
   1.12613    0.02957   15.11350    0.07160   20.94458
   1.14114    0.02998   15.11794    0.07263   20.95533
   1.15616    0.03040   15.12261    0.07366   20.96637
   1.17117    0.03081   15.12706    0.07470   20.97741
   1.18619    0.03123   15.13188    0.07574   20.98867
   1.20120    0.03165   15.13647    0.07678   21.00016
   1.21622    0.03207   15.14122    0.07783   21.01180
   1.23123    0.03248   15.14618    0.07888   21.02351
   1.24625    0.03290   15.15107    0.07993   21.03544
   1.26126    0.03333   15.15604    0.08099   21.04760
   1.27628    0.03375   15.16108    0.08205   21.05975
   1.29129    0.03417   15.16612    0.08312   21.07205
   1.30631    0.03459   15.17131    0.08419   21.08465
   1.32132    0.03502   15.17657    0.08526   21.09740
   1.33634    0.03544   15.18190    0.08633   21.11029
   1.35135    0.03587   15.18724    0.08741   21.12334
   1.36637    0.03630   15.19258    0.08850   21.13653
   1.38138    0.03672   15.19806    0.08958   21.14987
   1.39640    0.03715   15.20362    0.09067   21.16343
   1.41141    0.03758   15.20925    0.09177   21.17707
   1.42643    0.03801   15.21488    0.09287   21.19093
   1.44144    0.03845   15.22066    0.09397   21.20501
   1.45646    0.03888   15.22644    0.09508   21.21916
   1.47147    0.03931   15.23237    0.09619   21.23347
   1.48649    0.03975   15.23830    0.09731   21.24800
   1.50150    0.04019   15.24423    0.09843   21.26274
   1.51652    0.04062   15.25031    0.09956   21.27757
   1.53153    0.04106   15.25639    0.10069   21.29261
   1.54655    0.04150   15.26261    0.10182   21.30780
   1.56156    0.04194   15.26898    0.10296   21.32314
   1.57658    0.04239   15.27514    0.10410   21.33863
   1.59159    0.04283   15.28166    0.10525   21.35435
   1.60661    0.04327   15.28803    0.10640   21.37021
   1.62162    0.04372   15.29455    0.10756   21.38629
   1.63664    0.04417   15.30122    0.10873   21.40259
   1.65165    0.04462   15.30782    0.10989   21.41890
   1.66667    0.04506   15.31464    0.11107   21.43550
   1.68168    0.04552   15.32146    0.11225   21.45225
   1.69670    0.04597   15.32827    0.11343   21.46915
   1.71171    0.04642   15.33517    0.11462   21.48634
   1.72673    0.04688   15.34213    0.11581   21.50353
   1.74174    0.04733   15.34917    0.11701   21.52095
   1.75676    0.04779   15.35644    0.11822   21.53874
   1.77177    0.04825   15.36363    0.11943   21.55645
   1.78679    0.04871   15.37089    0.12065   21.57453
   1.80180    0.04917   15.37830    0.12187   21.59269
   1.81682    0.04963   15.38564    0.12310   21.61115
   1.83183    0.05010   15.39312    0.12433   21.62960
   1.84685    0.05056   15.40068    0.12557   21.64835
   1.86186    0.05103   15.40832    0.12682   21.66740
   1.87688    0.05150   15.41602    0.12807   21.68644
   1.89189    0.05197   15.42381    0.12933   21.70571
   1.90691    0.05244   15.43159    0.13059   21.72535
   1.92192    0.05291   15.43959    0.13186   21.74492
   1.93694    0.05339   15.44752    0.13314   21.76485
   1.95195    0.05386   15.45545    0.13442   21.78486
   1.96697    0.05434   15.46368    0.13571   21.80517
   1.98198    0.05482   15.47183    0.13701   21.82563
   1.99700    0.05530   15.48006    0.13831   21.84623
   2.01201    0.05578   15.48843    0.13962   21.86713
   2.02703    0.05627   15.49681    0.14094   21.88818
   2.04204    0.05675   15.50533    0.14226   21.90945
   2.05706    0.05724   15.51385    0.14359   21.93094
   2.07207    0.05773   15.52252    0.14493   21.95251
   2.08709    0.05822   15.53120    0.14628   21.97444
   2.10210    0.05871   15.54001    0.14763   21.99645
   2.11712    0.05921   15.54883    0.14899   22.01861
   2.13213    0.05970   15.55780    0.15036   22.04107
   2.14715    0.06020   15.56677    0.15173   22.06382
   2.16216    0.06070   15.57588    0.15311   22.08672
   2.17718    0.06120   15.58500    0.15450   22.10970
   2.19219    0.06170   15.59426    0.15590   22.13304
   2.20721    0.06221   15.60345    0.15731   22.15646
   2.22222    0.06272   15.61287    0.15872   22.18018
   2.23724    0.06322   15.62228    0.16015   22.20427
   2.25225    0.06374   15.63184    0.16158   22.22828
   2.26727    0.06425   15.64147    0.16302   22.25266
   2.28228    0.06476   15.65118    0.16446   22.27712
   2.29730    0.06528   15.66089    0.16592   22.30202
   2.31231    0.06580   15.67067    0.16739   22.32707
   2.32733    0.06632   15.68068    0.16886   22.35219
   2.34234    0.06684   15.69061    0.17034   22.37761
   2.35736    0.06736   15.70076    0.17183   22.40333
   2.37237    0.06789   15.71084    0.17333   22.42927
   2.38739    0.06842   15.72115    0.17484   22.45536
   2.40240    0.06895   15.73137    0.17636   22.48167
   2.41742    0.06948   15.74175    0.17789   22.50827
   2.43243    0.07002   15.75220    0.17943   22.53510
   2.44745    0.07056   15.76272    0.18098   22.56215
   2.46246    0.07110   15.77339    0.18253   22.58943
   2.47748    0.07164   15.78414    0.18410   22.61685
   2.49249    0.07218   15.79496    0.18568   22.64457
   2.50751    0.07273   15.80578    0.18727   22.67258
   2.52252    0.07328   15.81675    0.18886   22.70074
   2.53754    0.07383   15.82772    0.19047   22.72928
   2.55255    0.07438   15.83883    0.19209   22.75803
   2.56757    0.07493   15.85017    0.19372   22.78686
   2.58258    0.07549   15.86144    0.19536   22.81599
   2.59760    0.07605   15.87285    0.19701   22.84556
   2.61261    0.07662   15.88426    0.19867   22.87513
   2.62763    0.07718   15.89583    0.20035   22.90515
   2.64264    0.07775   15.90732    0.20203   22.93524
   2.65766    0.07832   15.91902    0.20373   22.96569
   2.67267    0.07889   15.93088    0.20544   22.99638
   2.68769    0.07947   15.94274    0.20715   23.02736
   2.70270    0.08004   15.95475    0.20889   23.05863
   2.71772    0.08062   15.96683    0.21063   23.09006
   2.73273    0.08121   15.97898    0.21238   23.12178
   2.74775    0.08179   15.99114    0.21415   23.15372
   2.76276    0.08238   16.00351    0.21593   23.18596
   2.77778    0.08297   16.01596    0.21772   23.21857
   2.79279    0.08357   16.02841    0.21953   23.25133
   2.80781    0.08416   16.04094    0.22135   23.28445
   2.82282    0.08476   16.05369    0.22318   23.31773
   2.83784    0.08536   16.06636    0.22503   23.35138
   2.85285    0.08597   16.07926    0.22688   23.38524
   2.86787    0.08658   16.09222    0.22875   23.41949
   2.88288    0.08719   16.10519    0.23064   23.45387
   2.89790    0.08780   16.11839    0.23254   23.48871
   2.91291    0.08842   16.13165    0.23445   23.52361
   2.92793    0.08904   16.14492    0.23638   23.55904
   2.94294    0.08966   16.15833    0.23832   23.59469
   2.95796    0.09028   16.17197    0.24028   23.63048
   2.97297    0.09091   16.18553    0.24225   23.66672
   2.98799    0.09154   16.19909    0.24424   23.70326
   3.00300    0.09218   16.21295    0.24624   23.74002
   3.01802    0.09282   16.22681    0.24826   23.77708
   3.03303    0.09346   16.24082    0.25029   23.81443
   3.04805    0.09410   16.25483    0.25234   23.85208
   3.06306    0.09475   16.26913    0.25440   23.89017
   3.07808    0.09540   16.28329    0.25649   23.92856
   3.09309    0.09606   16.29766    0.25858   23.96717
   3.10811    0.09671   16.31212    0.26070   24.00608
   3.12312    0.09737   16.32672    0.26283   24.04529
   3.13814    0.09804   16.34146    0.26498   24.08494
   3.15315    0.09871   16.35614    0.26714   24.12481
   3.16817    0.09938   16.37104    0.26932   24.16505
   3.18318    0.10005   16.38586    0.27152   24.20567
   3.19820    0.10073   16.40105    0.27374   24.24650
   3.21321    0.10141   16.41617    0.27598   24.28771
   3.22823    0.10210   16.43151    0.27823   24.32929
   3.24324    0.10279   16.44678    0.28051   24.37123
   3.25826    0.10348   16.46227    0.28280   24.41355
   3.27327    0.10418   16.47783    0.28511   24.45609
   3.28829    0.10488   16.49354    0.28744   24.49900
   3.30330    0.10559   16.50940    0.28979   24.54229
   3.31832    0.10629   16.52534    0.29216   24.58587
   3.33333    0.10701   16.54135    0.29455   24.62989
   3.34835    0.10772   16.55735    0.29696   24.67443
   3.36336    0.10844   16.57366    0.29939   24.71919
   3.37838    0.10917   16.58996    0.30185   24.76433
   3.39339    0.10990   16.60642    0.30432   24.80976
   3.40841    0.11063   16.62287    0.30682   24.85556
   3.42342    0.11137   16.63962    0.30933   24.90166
   3.43844    0.11211   16.65629    0.31187   24.94835
   3.45345    0.11285   16.67319    0.31443   24.99533
   3.46847    0.11360   16.69024    0.31702   25.04262
   3.48348    0.11435   16.70728    0.31962   25.09042
   3.49850    0.11511   16.72455    0.32226   25.13852
   3.51351    0.11588   16.74189    0.32491   25.18699
   3.52853    0.11664   16.75931    0.32759   25.23598
   3.54354    0.11741   16.77695    0.33029   25.28534
   3.55856    0.11819   16.79451    0.33302   25.33514
   3.57357    0.11897   16.81230    0.33577   25.38516
   3.58859    0.11976   16.83031    0.33855   25.43586
   3.60360    0.12055   16.84832    0.34135   25.48670
   3.61862    0.12134   16.86640    0.34418   25.53821
   3.63363    0.12214   16.88471    0.34704   25.58994
   3.64865    0.12295   16.90316    0.34992   25.64226
   3.66366    0.12375   16.92161    0.35283   25.69488
   3.67868    0.12457   16.94022    0.35576   25.74809
   3.69369    0.12539   16.95897    0.35873   25.80168
   3.70871    0.12621   16.97787    0.36172   25.85563
   3.72372    0.12704   16.99691    0.36474   25.91025
   3.73874    0.12788   17.01604    0.36780   25.96509
   3.75375    0.12872   17.03523    0.37088   26.02053
   3.76877    0.12956   17.05457    0.37399   26.07634
   3.78378    0.13041   17.07414    0.37713   26.13259
   3.79880    0.13127   17.09378    0.38030   26.18943
   3.81381    0.13213   17.11349    0.38350   26.24664
   3.82883    0.13300   17.13343    0.38674   26.30445
   3.84384    0.13387   17.15344    0.39000   26.36271
   3.85886    0.13475   17.17367    0.39330   26.42148
   3.87387    0.13563   17.19383    0.39663   26.48069
   3.88889    0.13652   17.21428    0.40000   26.54043
   3.90390    0.13741   17.23489    0.40340   26.60068
   3.91892    0.13831   17.25549    0.40683   26.66138
   3.93393    0.13922   17.27639    0.41030   26.72274
   3.94895    0.14013   17.29729    0.41381   26.78441
   3.96396    0.14105   17.31834    0.41735   26.84673
   3.97898    0.14198   17.33968    0.42093   26.90958
   3.99399    0.14291   17.36103    0.42454   26.97302
   4.00901    0.14385   17.38252    0.42819   27.03683
   4.02402    0.14479   17.40423    0.43188   27.10138
   4.03904    0.14574   17.42602    0.43561   27.16645
   4.05405    0.14670   17.44789    0.43938   27.23197
   4.06907    0.14766   17.46997    0.44319   27.29823
   4.08408    0.14863   17.49228    0.44704   27.36500
   4.09910    0.14961   17.51466    0.45093   27.43229
   4.11411    0.15059   17.53712    0.45487   27.50026
   4.12913    0.15158   17.55987    0.45884   27.56866
   4.14414    0.15258   17.58262    0.46286   27.63773
   4.15916    0.15358   17.60552    0.46693   27.70740
   4.17417    0.15459   17.62872    0.47103   27.77781
   4.18919    0.15561   17.65192    0.47519   27.84866
   4.20420    0.15663   17.67541    0.47939   27.92018
   4.21922    0.15767   17.69905    0.48363   27.99244
   4.23423    0.15871   17.72277    0.48792   28.06521
   4.24925    0.15975   17.74656    0.49227   28.13873
   4.26426    0.16081   17.77057    0.49666   28.21292
   4.27928    0.16187   17.79481    0.50110   28.28762
   4.29429    0.16294   17.81926    0.50559   28.36307
   4.30931    0.16402   17.84380    0.51013   28.43941
   4.32432    0.16510   17.86855    0.51472   28.51626
   4.33934    0.16620   17.89330    0.51937   28.59378
   4.35435    0.16730   17.91835    0.52407   28.67197
   4.36937    0.16841   17.94355    0.52883   28.75090
   4.38438    0.16953   17.96890    0.53364   28.83057
   4.39940    0.17065   17.99439    0.53851   28.91091
   4.41441    0.17179   18.02011    0.54344   28.99191
   4.42943    0.17293   18.04590    0.54842   29.07381
   4.44444    0.17409   18.07199    0.55347   29.15637
   4.45946    0.17525   18.09815    0.55857   29.23975
   4.47447    0.17642   18.12446    0.56374   29.32379
   4.48949    0.17760   18.15114    0.56897   29.40872
   4.50450    0.17878   18.17789    0.57426   29.49439
   4.51952    0.17998   18.20480    0.57962   29.58096
   4.53453    0.18119   18.23185    0.58504   29.66826
   4.54955    0.18240   18.25905    0.59053   29.75624
   4.56456    0.18363   18.28654    0.59609   29.84517
   4.57958    0.18486   18.31419    0.60171   29.93499
   4.59459    0.18611   18.34205    0.60741   30.02563
   4.60961    0.18736   18.37014    0.61318   30.11709
   4.62462    0.18863   18.39838    0.61902   30.20936
   4.63964    0.18990   18.42669    0.62494   30.30259
   4.65465    0.19119   18.45530    0.63093   30.39671
   4.66967    0.19248   18.48405    0.63700   30.49165
   4.68468    0.19379   18.51303    0.64315   30.58770
   4.69970    0.19510   18.54223    0.64937   30.68442
   4.71472    0.19643   18.57150    0.65568   30.78239
   4.72973    0.19777   18.60115    0.66207   30.88111
   4.74474    0.19911   18.63094    0.66854   30.98087
   4.75976    0.20047   18.66088    0.67510   31.08151
   4.77478    0.20184   18.69105    0.68175   31.18319
   4.78979    0.20323   18.72136    0.68849   31.28591
   4.80480    0.20462   18.75204    0.69531   31.38960
   4.81982    0.20603   18.78280    0.70223   31.49424
   4.83483    0.20744   18.81385    0.70924   31.59992
   4.84985    0.20887   18.84505    0.71635   31.70680
   4.86487    0.21031   18.87655    0.72355   31.81463
   4.87988    0.21177   18.90812    0.73085   31.92365
   4.89490    0.21323   18.94006    0.73826   32.03371
   4.90991    0.21471   18.97208    0.74576   32.14480
   4.92492    0.21620   19.00447    0.75338   32.25723
   4.93994    0.21771   19.03708    0.76109   32.37054
   4.95496    0.21923   19.06983    0.76892   32.48512
   4.96997    0.22076   19.10274    0.77686   32.60111
   4.98499    0.22230   19.13609    0.78491   32.71820
