#                                                           
#  /$$     /$$ /$$$$$$  /$$      /$$ /$$$$$$$   /$$$$$$     
# |  $$   /$$//$$__  $$| $$$    /$$$| $$__  $$ /$$__  $$    
#  \  $$ /$$/| $$  \ $$| $$$$  /$$$$| $$  \ $$| $$  \ $$    
#   \  $$$$/ | $$$$$$$$| $$ $$/$$ $$| $$$$$$$ | $$  | $$    
#    \  $$/  | $$__  $$| $$  $$$| $$| $$__  $$| $$  | $$    
#     | $$   | $$  | $$| $$\  $ | $$| $$  \ $$| $$  | $$    
#     | $$   | $$  | $$| $$ \/  | $$| $$$$$$$/|  $$$$$$/    
#     |__/   |__/  |__/|__/     |__/|_______/  \______/     
#                                                           
#       Version 4.3.0 Revision 15624 Hash 7ed12fb           
#                     MPI+SLK Build                         
#               http://www.yambo-code.org                   
#
# EELS @ Q(1)  [q->0 direction]:0.1000E-4  0.000     0.000   
#
#
# - Energies      are Teter 93(XC)
# - Wavefunctions are Teter 93(XC)
#
# - The Green`s function is Retarded -
# - Using the Length Gauge -
# - [r,Vnl] *is* included -
#
#   BSK|Identifier              :7592
#      |Dimension               :49
#      |Bands                   :1 - 50
#      |Exchange           [res]: yes
#      |Correlation        [res]: no
#      |Kernel`s coupling       : no
#      |Exchange           [cpl]: no
#      |Correlation        [cpl]: no
#      |W interaction is bare   : no
#      |ALDA kernel in R-space  : yes
#      |RL vectors    [exchange]:4067
#      |E/h energy range    [ev]:-1.000000 - -1.000000
#      |Coupling range     [o/o]: 100.0000 -  100.0000
#
#    E/ev[1]      EEL-Im[2]    EEL-Re[3]    EELo-Im[4]   EELo-Re[5]
#
    0.000000    -0.000000    -0.982332    -0.000000    -0.980822
   0.1502E-1    0.2250E-6    -.9823       0.2779E-6    -.9808   
   0.3003E-1    0.4499E-6    -.9823       0.5557E-6    -.9808   
   0.4505E-1    0.6749E-6    -.9823       0.8336E-6    -.9808   
   0.6006E-1    0.8999E-6    -.9823       0.1111E-5    -.9808   
   0.7508E-1    0.1125E-5    -.9823       0.1389E-5    -.9808   
   0.9009E-1    0.1350E-5    -.9823       0.1667E-5    -.9808   
   0.1051       0.1575E-5    -.9823       0.1945E-5    -.9808   
   0.1201       0.1800E-5    -.9823       0.2223E-5    -.9808   
   0.1351       0.2025E-5    -.9823       0.2501E-5    -.9808   
   0.1502       0.2250E-5    -.9823       0.2779E-5    -.9808   
   0.1652       0.2475E-5    -.9823       0.3057E-5    -.9808   
   0.1802       0.2700E-5    -.9823       0.3335E-5    -.9808   
   0.1952       0.2926E-5    -.9823       0.3614E-5    -.9808   
   0.2102       0.3151E-5    -.9823       0.3892E-5    -.9808   
   0.2252       0.3376E-5    -.9823       0.4170E-5    -.9808   
   0.2402       0.3602E-5    -.9823       0.4448E-5    -.9808   
   0.2553       0.3827E-5    -.9823       0.4727E-5    -.9808   
   0.2703       0.4052E-5    -.9823       0.5005E-5    -.9808   
   0.2853       0.4278E-5    -.9823       0.5284E-5    -.9808   
   0.3003       0.4503E-5    -.9823       0.5562E-5    -.9808   
   0.3153       0.4729E-5    -.9823       0.5841E-5    -.9808   
   0.3303       0.4955E-5    -.9823       0.6120E-5    -.9808   
   0.3453       0.5180E-5    -.9823       0.6399E-5    -.9808   
   0.3604       0.5406E-5    -.9823       0.6677E-5    -.9808   
   0.3754       0.5632E-5    -.9823       0.6956E-5    -.9808   
   0.3904       0.5858E-5    -.9823       0.7236E-5    -.9808   
   0.4054       0.6084E-5    -.9823       0.7515E-5    -.9808   
   0.4204       0.6310E-5    -.9823       0.7794E-5    -.9808   
   0.4354       0.6536E-5    -.9823       0.8074E-5    -.9808   
   0.4505       0.6762E-5    -.9823       0.8353E-5    -.9808   
   0.4655       0.6989E-5    -.9823       0.8633E-5    -.9808   
   0.4805       0.7215E-5    -.9823       0.8913E-5    -.9808   
   0.4955       0.7441E-5    -.9823       0.9193E-5    -.9808   
   0.5105       0.7668E-5    -.9823       0.9473E-5    -.9808   
   0.5255       0.7895E-5    -.9823       0.9753E-5    -.9808   
   0.5405       0.8122E-5    -.9823       0.1003E-4    -.9808   
   0.5556       0.8349E-5    -.9823       0.1031E-4    -.9808   
   0.5706       0.8576E-5    -.9823       0.1059E-4    -.9808   
   0.5856       0.8803E-5    -.9823       0.1087E-4    -.9808   
   0.6006       0.9030E-5    -.9823       0.1116E-4    -.9808   
   0.6156       0.9257E-5    -.9823       0.1144E-4    -.9808   
   0.6306       0.9485E-5    -.9823       0.1172E-4    -.9808   
   0.6456       0.9712E-5    -.9823       0.1200E-4    -.9808   
   0.6607       0.9940E-5    -.9823       0.1228E-4    -.9808   
   0.6757       0.1017E-4    -.9823       0.1256E-4    -.9808   
   0.6907       0.1040E-4    -.9823       0.1284E-4    -.9808   
   0.7057       0.1062E-4    -.9823       0.1313E-4    -.9808   
   0.7207       0.1085E-4    -.9823       0.1341E-4    -.9808   
   0.7357       0.1108E-4    -.9823       0.1369E-4    -.9808   
   0.7508       0.1131E-4    -.9823       0.1397E-4    -.9808   
   0.7658       0.1154E-4    -.9823       0.1426E-4    -.9808   
   0.7808       0.1177E-4    -.9823       0.1454E-4    -.9808   
   0.7958       0.1200E-4    -.9823       0.1482E-4    -.9808   
   0.8108       0.1223E-4    -.9823       0.1511E-4    -.9808   
   0.8258       0.1245E-4    -.9823       0.1539E-4    -.9808   
   0.8408       0.1268E-4    -.9823       0.1567E-4    -.9808   
   0.8559       0.1291E-4    -.9823       0.1596E-4    -.9808   
   0.8709       0.1314E-4    -.9823       0.1624E-4    -.9808   
   0.8859       0.1337E-4    -.9823       0.1653E-4    -.9807   
   0.9009       0.1360E-4    -.9823       0.1681E-4    -.9807   
   0.9159       0.1383E-4    -.9823       0.1710E-4    -.9807   
   0.9309       0.1406E-4    -.9823       0.1738E-4    -.9807   
   0.9459       0.1429E-4    -.9823       0.1767E-4    -.9807   
   0.9610       0.1453E-4    -.9823       0.1795E-4    -.9807   
   0.9760       0.1476E-4    -.9823       0.1824E-4    -.9807   
   0.9910       0.1499E-4    -.9823       0.1853E-4    -.9807   
    1.006       0.1522E-4    -.9823       0.1881E-4    -.9807   
    1.021       0.1545E-4    -.9823       0.1910E-4    -.9807   
    1.036       0.1568E-4    -.9823       0.1939E-4    -.9807   
    1.051       0.1592E-4    -.9822       0.1967E-4    -.9807   
    1.066       0.1615E-4    -.9822       0.1996E-4    -.9807   
    1.081       0.1638E-4    -.9822       0.2025E-4    -.9807   
    1.096       0.1661E-4    -.9822       0.2054E-4    -.9807   
    1.111       0.1685E-4    -.9822       0.2083E-4    -.9807   
    1.126       0.1708E-4    -.9822       0.2112E-4    -.9807   
    1.141       0.1731E-4    -.9822       0.2141E-4    -.9807   
    1.156       0.1755E-4    -.9822       0.2170E-4    -.9807   
    1.171       0.1778E-4    -.9822       0.2198E-4    -.9807   
    1.186       0.1801E-4    -.9822       0.2228E-4    -.9807   
    1.201       0.1825E-4    -.9822       0.2257E-4    -.9807   
    1.216       0.1848E-4    -.9822       0.2286E-4    -.9807   
    1.231       0.1872E-4    -.9822       0.2315E-4    -.9807   
    1.246       0.1895E-4    -.9822       0.2344E-4    -.9807   
    1.261       0.1919E-4    -.9822       0.2373E-4    -.9807   
    1.276       0.1942E-4    -.9822       0.2402E-4    -.9807   
    1.291       0.1966E-4    -.9822       0.2432E-4    -.9807   
    1.306       0.1990E-4    -.9822       0.2461E-4    -.9807   
    1.321       0.2013E-4    -.9822       0.2490E-4    -.9807   
    1.336       0.2037E-4    -.9822       0.2519E-4    -.9807   
    1.351       0.2061E-4    -.9822       0.2549E-4    -.9807   
    1.366       0.2084E-4    -.9822       0.2578E-4    -.9806   
    1.381       0.2108E-4    -.9822       0.2608E-4    -.9806   
    1.396       0.2132E-4    -.9822       0.2637E-4    -.9806   
    1.411       0.2156E-4    -.9822       0.2667E-4    -.9806   
    1.426       0.2179E-4    -.9822       0.2696E-4    -.9806   
    1.441       0.2203E-4    -.9822       0.2726E-4    -.9806   
    1.456       0.2227E-4    -.9822       0.2756E-4    -.9806   
    1.471       0.2251E-4    -.9822       0.2785E-4    -.9806   
    1.486       0.2275E-4    -.9822       0.2815E-4    -.9806   
    1.502       0.2299E-4    -.9822       0.2845E-4    -.9806   
    1.517       0.2323E-4    -.9822       0.2875E-4    -.9806   
    1.532       0.2347E-4    -.9822       0.2905E-4    -.9806   
    1.547       0.2371E-4    -.9822       0.2934E-4    -.9806   
    1.562       0.2395E-4    -.9821       0.2964E-4    -.9806   
    1.577       0.2419E-4    -.9821       0.2994E-4    -.9806   
    1.592       0.2443E-4    -.9821       0.3024E-4    -.9806   
    1.607       0.2468E-4    -.9821       0.3054E-4    -.9806   
    1.622       0.2492E-4    -.9821       0.3085E-4    -.9806   
    1.637       0.2516E-4    -.9821       0.3115E-4    -.9806   
    1.652       0.2540E-4    -.9821       0.3145E-4    -.9806   
    1.667       0.2565E-4    -.9821       0.3175E-4    -.9806   
    1.682       0.2589E-4    -.9821       0.3206E-4    -.9806   
    1.697       0.2614E-4    -.9821       0.3236E-4    -.9806   
    1.712       0.2638E-4    -.9821       0.3266E-4    -.9805   
    1.727       0.2662E-4    -.9821       0.3297E-4    -.9805   
    1.742       0.2687E-4    -.9821       0.3327E-4    -.9805   
    1.757       0.2712E-4    -.9821       0.3358E-4    -.9805   
    1.772       0.2736E-4    -.9821       0.3388E-4    -.9805   
    1.787       0.2761E-4    -.9821       0.3419E-4    -.9805   
    1.802       0.2785E-4    -.9821       0.3450E-4    -.9805   
    1.817       0.2810E-4    -.9821       0.3481E-4    -.9805   
    1.832       0.2835E-4    -.9821       0.3511E-4    -.9805   
    1.847       0.2860E-4    -.9821       0.3542E-4    -.9805   
    1.862       0.2884E-4    -.9821       0.3573E-4    -.9805   
    1.877       0.2909E-4    -.9821       0.3604E-4    -.9805   
    1.892       0.2934E-4    -.9821       0.3635E-4    -.9805   
    1.907       0.2959E-4    -.9821       0.3666E-4    -.9805   
    1.922       0.2984E-4    -.9821       0.3697E-4    -.9805   
    1.937       0.3009E-4    -.9820       0.3728E-4    -.9805   
    1.952       0.3034E-4    -.9820       0.3760E-4    -.9805   
    1.967       0.3059E-4    -.9820       0.3791E-4    -.9805   
    1.982       0.3084E-4    -.9820       0.3822E-4    -.9805   
    1.997       0.3109E-4    -.9820       0.3854E-4    -.9804   
    2.012       0.3135E-4    -.9820       0.3885E-4    -.9804   
    2.027       0.3160E-4    -.9820       0.3917E-4    -.9804   
    2.042       0.3185E-4    -.9820       0.3948E-4    -.9804   
    2.057       0.3211E-4    -.9820       0.3980E-4    -.9804   
    2.072       0.3236E-4    -.9820       0.4012E-4    -.9804   
    2.087       0.3261E-4    -.9820       0.4043E-4    -.9804   
    2.102       0.3287E-4    -.9820       0.4075E-4    -.9804   
    2.117       0.3312E-4    -.9820       0.4107E-4    -.9804   
    2.132       0.3338E-4    -.9820       0.4139E-4    -.9804   
    2.147       0.3364E-4    -.9820       0.4171E-4    -.9804   
    2.162       0.3389E-4    -.9820       0.4203E-4    -.9804   
    2.177       0.3415E-4    -.9820       0.4235E-4    -.9804   
    2.192       0.3441E-4    -.9820       0.4268E-4    -.9804   
    2.207       0.3467E-4    -.9820       0.4300E-4    -.9804   
    2.222       0.3493E-4    -.9820       0.4332E-4    -.9804   
    2.237       0.3518E-4    -.9819       0.4365E-4    -.9803   
    2.252       0.3544E-4    -.9819       0.4397E-4    -.9803   
    2.267       0.3570E-4    -.9819       0.4430E-4    -.9803   
    2.282       0.3596E-4    -.9819       0.4462E-4    -.9803   
    2.297       0.3623E-4    -.9819       0.4495E-4    -.9803   
    2.312       0.3649E-4    -.9819       0.4528E-4    -.9803   
    2.327       0.3675E-4    -.9819       0.4560E-4    -.9803   
    2.342       0.3701E-4    -.9819       0.4593E-4    -.9803   
    2.357       0.3728E-4    -.9819       0.4626E-4    -.9803   
    2.372       0.3754E-4    -.9819       0.4659E-4    -.9803   
    2.387       0.3780E-4    -.9819       0.4692E-4    -.9803   
    2.402       0.3807E-4    -.9819       0.4725E-4    -.9803   
    2.417       0.3833E-4    -.9819       0.4759E-4    -.9803   
    2.432       0.3860E-4    -.9819       0.4792E-4    -.9803   
    2.447       0.3887E-4    -.9819       0.4825E-4    -.9803   
    2.462       0.3913E-4    -.9819       0.4859E-4    -.9802   
    2.477       0.3940E-4    -.9819       0.4892E-4    -.9802   
    2.492       0.3967E-4    -.9819       0.4926E-4    -.9802   
    2.508       0.3994E-4    -.9818       0.4960E-4    -.9802   
    2.523       0.4021E-4    -.9818       0.4993E-4    -.9802   
    2.538       0.4048E-4    -.9818       0.5027E-4    -.9802   
    2.553       0.4075E-4    -.9818       0.5061E-4    -.9802   
    2.568       0.4102E-4    -.9818       0.5095E-4    -.9802   
    2.583       0.4129E-4    -.9818       0.5129E-4    -.9802   
    2.598       0.4156E-4    -.9818       0.5164E-4    -.9802   
    2.613       0.4183E-4    -.9818       0.5198E-4    -.9802   
    2.628       0.4211E-4    -.9818       0.5232E-4    -.9802   
    2.643       0.4238E-4    -.9818       0.5267E-4    -.9802   
    2.658       0.4266E-4    -.9818       0.5301E-4    -.9801   
    2.673       0.4293E-4    -.9818       0.5336E-4    -.9801   
    2.688       0.4321E-4    -.9818       0.5370E-4    -.9801   
    2.703       0.4348E-4    -.9818       0.5405E-4    -.9801   
    2.718       0.4376E-4    -.9818       0.5440E-4    -.9801   
    2.733       0.4404E-4    -.9818       0.5475E-4    -.9801   
    2.748       0.4432E-4    -.9817       0.5510E-4    -.9801   
    2.763       0.4459E-4    -.9817       0.5545E-4    -.9801   
    2.778       0.4487E-4    -.9817       0.5580E-4    -.9801   
    2.793       0.4515E-4    -.9817       0.5615E-4    -.9801   
    2.808       0.4544E-4    -.9817       0.5651E-4    -.9801   
    2.823       0.4572E-4    -.9817       0.5686E-4    -.9801   
    2.838       0.4600E-4    -.9817       0.5722E-4    -.9800   
    2.853       0.4628E-4    -.9817       0.5757E-4    -.9800   
    2.868       0.4657E-4    -.9817       0.5793E-4    -.9800   
    2.883       0.4685E-4    -.9817       0.5829E-4    -.9800   
    2.898       0.4714E-4    -.9817       0.5865E-4    -.9800   
    2.913       0.4742E-4    -.9817       0.5901E-4    -.9800   
    2.928       0.4771E-4    -.9817       0.5937E-4    -.9800   
    2.943       0.4799E-4    -.9817       0.5973E-4    -.9800   
    2.958       0.4828E-4    -.9816       0.6010E-4    -.9800   
    2.973       0.4857E-4    -.9816       0.6046E-4    -.9800   
    2.988       0.4886E-4    -.9816       0.6082E-4    -.9800   
    3.003       0.4915E-4    -.9816       0.6119E-4    -.9799   
    3.018       0.4944E-4    -.9816       0.6156E-4    -.9799   
    3.033       0.4973E-4    -.9816       0.6193E-4    -.9799   
    3.048       0.5002E-4    -.9816       0.6229E-4    -.9799   
    3.063       0.5032E-4    -.9816       0.6266E-4    -.9799   
    3.078       0.5061E-4    -.9816       0.6304E-4    -.9799   
    3.093       0.5091E-4    -.9816       0.6341E-4    -.9799   
    3.108       0.5120E-4    -.9816       0.6378E-4    -.9799   
    3.123       0.5150E-4    -.9816       0.6416E-4    -.9799   
    3.138       0.5179E-4    -.9816       0.6453E-4    -.9799   
    3.153       0.5209E-4    -.9816       0.6491E-4    -.9799   
    3.168       0.5239E-4    -.9815       0.6529E-4    -.9798   
    3.183       0.5269E-4    -.9815       0.6566E-4    -.9798   
    3.198       0.5299E-4    -.9815       0.6604E-4    -.9798   
    3.213       0.5329E-4    -.9815       0.6642E-4    -.9798   
    3.228       0.5359E-4    -.9815       0.6681E-4    -.9798   
    3.243       0.5389E-4    -.9815       0.6719E-4    -.9798   
    3.258       0.5420E-4    -.9815       0.6757E-4    -.9798   
    3.273       0.5450E-4    -.9815       0.6796E-4    -.9798   
    3.288       0.5481E-4    -.9815       0.6835E-4    -.9798   
    3.303       0.5511E-4    -.9815       0.6873E-4    -.9798   
    3.318       0.5542E-4    -.9815       0.6912E-4    -.9797   
    3.333       0.5573E-4    -.9815       0.6951E-4    -.9797   
    3.348       0.5604E-4    -.9814       0.6990E-4    -.9797   
    3.363       0.5634E-4    -.9814       0.7030E-4    -.9797   
    3.378       0.5665E-4    -.9814       0.7069E-4    -.9797   
    3.393       0.5697E-4    -.9814       0.7108E-4    -.9797   
    3.408       0.5728E-4    -.9814       0.7148E-4    -.9797   
    3.423       0.5759E-4    -.9814       0.7188E-4    -.9797   
    3.438       0.5790E-4    -.9814       0.7228E-4    -.9797   
    3.453       0.5822E-4    -.9814       0.7267E-4    -.9796   
    3.468       0.5853E-4    -.9814       0.7308E-4    -.9796   
    3.483       0.5885E-4    -.9814       0.7348E-4    -.9796   
    3.498       0.5917E-4    -.9814       0.7388E-4    -.9796   
    3.514       0.5949E-4    -.9813       0.7429E-4    -.9796   
    3.529       0.5981E-4    -.9813       0.7469E-4    -.9796   
    3.544       0.6013E-4    -.9813       0.7510E-4    -.9796   
    3.559       0.6045E-4    -.9813       0.7551E-4    -.9796   
    3.574       0.6077E-4    -.9813       0.7592E-4    -.9796   
    3.589       0.6109E-4    -.9813       0.7633E-4    -.9795   
    3.604       0.6142E-4    -.9813       0.7674E-4    -.9795   
    3.619       0.6174E-4    -.9813       0.7716E-4    -.9795   
    3.634       0.6207E-4    -.9813       0.7757E-4    -.9795   
    3.649       0.6239E-4    -.9813       0.7799E-4    -.9795   
    3.664       0.6272E-4    -.9813       0.7841E-4    -.9795   
    3.679       0.6305E-4    -.9812       0.7883E-4    -.9795   
    3.694       0.6338E-4    -.9812       0.7925E-4    -.9795   
    3.709       0.6371E-4    -.9812       0.7967E-4    -.9795   
    3.724       0.6404E-4    -.9812       0.8009E-4    -.9794   
    3.739       0.6438E-4    -.9812       0.8052E-4    -.9794   
    3.754       0.6471E-4    -.9812       0.8094E-4    -.9794   
    3.769       0.6505E-4    -.9812       0.8137E-4    -.9794   
    3.784       0.6538E-4    -.9812       0.8180E-4    -.9794   
    3.799       0.6572E-4    -.9812       0.8223E-4    -.9794   
    3.814       0.6606E-4    -.9812       0.8267E-4    -.9794   
    3.829       0.6640E-4    -.9812       0.8310E-4    -.9794   
    3.844       0.6674E-4    -.9811       0.8354E-4    -.9793   
    3.859       0.6708E-4    -.9811       0.8397E-4    -.9793   
    3.874       0.6742E-4    -.9811       0.8441E-4    -.9793   
    3.889       0.6777E-4    -.9811       0.8485E-4    -.9793   
    3.904       0.6811E-4    -.9811       0.8529E-4    -.9793   
    3.919       0.6846E-4    -.9811       0.8574E-4    -.9793   
    3.934       0.6881E-4    -.9811       0.8618E-4    -.9793   
    3.949       0.6915E-4    -.9811       0.8663E-4    -.9793   
    3.964       0.6950E-4    -.9811       0.8707E-4    -.9792   
    3.979       0.6986E-4    -.9810       0.8752E-4    -.9792   
    3.994       0.7021E-4    -.9810       0.8797E-4    -.9792   
    4.009       0.7056E-4    -.9810       0.8843E-4    -.9792   
    4.024       0.7091E-4    -.9810       0.8888E-4    -.9792   
    4.039       0.7127E-4    -.9810       0.8934E-4    -.9792   
    4.054       0.7163E-4    -.9810       0.8980E-4    -.9792   
    4.069       0.7199E-4    -.9810       0.9026E-4    -.9791   
    4.084       0.7234E-4    -.9810       0.9072E-4    -.9791   
    4.099       0.7270E-4    -.9810       0.9118E-4    -.9791   
    4.114       0.7307E-4    -.9810       0.9164E-4    -.9791   
    4.129       0.7343E-4    -.9809       0.9211E-4    -.9791   
    4.144       0.7379E-4    -.9809       0.9258E-4    -.9791   
    4.159       0.7416E-4    -.9809       0.9305E-4    -.9791   
    4.174       0.7453E-4    -.9809       0.9352E-4    -.9790   
    4.189       0.7489E-4    -.9809       0.9399E-4    -.9790   
    4.204       0.7526E-4    -.9809       0.9447E-4    -.9790   
    4.219       0.7563E-4    -.9809       0.9494E-4    -.9790   
