#                                                           
#  /$$     /$$ /$$$$$$  /$$      /$$ /$$$$$$$   /$$$$$$     
# |  $$   /$$//$$__  $$| $$$    /$$$| $$__  $$ /$$__  $$    
#  \  $$ /$$/| $$  \ $$| $$$$  /$$$$| $$  \ $$| $$  \ $$    
#   \  $$$$/ | $$$$$$$$| $$ $$/$$ $$| $$$$$$$ | $$  | $$    
#    \  $$/  | $$__  $$| $$  $$$| $$| $$__  $$| $$  | $$    
#     | $$   | $$  | $$| $$\  $ | $$| $$  \ $$| $$  | $$    
#     | $$   | $$  | $$| $$ \/  | $$| $$$$$$$/|  $$$$$$/    
#     |__/   |__/  |__/|__/     |__/|_______/  \______/     
#                                                           
#       Version 4.3.0 Revision 15624 Hash 7ed12fb           
#                     MPI+SLK Build                         
#               http://www.yambo-code.org                   
#
# Joint density of states @ Q(1) [q->0 direction] :0.1000E-4  0.000     0.000   
#
# - Energies      are Teter 93(XC)
# - The Green`s function is Retarded -
#
#   BSK|Identifier              :7592
#      |Dimension               :49
#      |Bands                   :1 - 50
#      |Exchange           [res]: yes
#      |Correlation        [res]: no
#      |Kernel`s coupling       : no
#      |Exchange           [cpl]: no
#      |Correlation        [cpl]: no
#      |W interaction is bare   : no
#      |ALDA kernel in R-space  : yes
#      |RL vectors    [exchange]:4067
#      |E/h energy range    [ev]:-1.000000 - -1.000000
#      |Coupling range     [o/o]: 100.0000 -  100.0000
#
#    E/ev[1]      jdos-Im[2]   jdos-Re[3]   jdoso-Im[4]  jdoso-Re[5]  jdos`-Im[6]  jdos`-Re[7]
#
    0.000000     0.000000     1.109314     0.000000     1.108381
   0.1502E-1    0.1175E-4     1.109       0.1175E-4     1.108   
   0.3003E-1    0.2350E-4     1.109       0.2349E-4     1.108   
   0.4505E-1    0.3525E-4     1.109       0.3524E-4     1.108   
   0.6006E-1    0.4700E-4     1.109       0.4698E-4     1.108   
   0.7508E-1    0.5875E-4     1.109       0.5873E-4     1.108   
   0.9009E-1    0.7050E-4     1.109       0.7048E-4     1.108   
   0.1051       0.8226E-4     1.109       0.8223E-4     1.108   
   0.1201       0.9401E-4     1.109       0.9397E-4     1.108   
   0.1351       0.1058E-3     1.109       0.1057E-3     1.108   
   0.1502       0.1175E-3     1.109       0.1175E-3     1.108   
   0.1652       0.1293E-3     1.109       0.1292E-3     1.108   
   0.1802       0.1410E-3     1.109       0.1410E-3     1.109   
   0.1952       0.1528E-3     1.109       0.1527E-3     1.109   
   0.2102       0.1646E-3     1.109       0.1645E-3     1.109   
   0.2252       0.1763E-3     1.110       0.1763E-3     1.109   
   0.2402       0.1881E-3     1.110       0.1880E-3     1.109   
   0.2553       0.1999E-3     1.110       0.1998E-3     1.109   
   0.2703       0.2116E-3     1.110       0.2115E-3     1.109   
   0.2853       0.2234E-3     1.110       0.2233E-3     1.109   
   0.3003       0.2352E-3     1.110       0.2351E-3     1.109   
   0.3153       0.2470E-3     1.110       0.2469E-3     1.109   
   0.3303       0.2587E-3     1.110       0.2586E-3     1.109   
   0.3453       0.2705E-3     1.110       0.2704E-3     1.109   
   0.3604       0.2823E-3     1.110       0.2822E-3     1.109   
   0.3754       0.2941E-3     1.110       0.2940E-3     1.109   
   0.3904       0.3059E-3     1.110       0.3058E-3     1.109   
   0.4054       0.3177E-3     1.110       0.3176E-3     1.109   
   0.4204       0.3295E-3     1.110       0.3294E-3     1.109   
   0.4354       0.3413E-3     1.110       0.3412E-3     1.109   
   0.4505       0.3531E-3     1.110       0.3530E-3     1.109   
   0.4655       0.3649E-3     1.110       0.3648E-3     1.109   
   0.4805       0.3767E-3     1.110       0.3766E-3     1.109   
   0.4955       0.3885E-3     1.110       0.3884E-3     1.109   
   0.5105       0.4004E-3     1.110       0.4002E-3     1.109   
   0.5255       0.4122E-3     1.110       0.4120E-3     1.109   
   0.5405       0.4240E-3     1.110       0.4239E-3     1.110   
   0.5556       0.4359E-3     1.111       0.4357E-3     1.110   
   0.5706       0.4477E-3     1.111       0.4475E-3     1.110   
   0.5856       0.4596E-3     1.111       0.4594E-3     1.110   
   0.6006       0.4714E-3     1.111       0.4712E-3     1.110   
   0.6156       0.4833E-3     1.111       0.4831E-3     1.110   
   0.6306       0.4951E-3     1.111       0.4949E-3     1.110   
   0.6456       0.5070E-3     1.111       0.5068E-3     1.110   
   0.6607       0.5189E-3     1.111       0.5187E-3     1.110   
   0.6757       0.5308E-3     1.111       0.5306E-3     1.110   
   0.6907       0.5426E-3     1.111       0.5424E-3     1.110   
   0.7057       0.5545E-3     1.111       0.5543E-3     1.110   
   0.7207       0.5664E-3     1.111       0.5662E-3     1.110   
   0.7357       0.5783E-3     1.111       0.5781E-3     1.111   
   0.7508       0.5903E-3     1.112       0.5900E-3     1.111   
   0.7658       0.6022E-3     1.112       0.6019E-3     1.111   
   0.7808       0.6141E-3     1.112       0.6139E-3     1.111   
   0.7958       0.6260E-3     1.112       0.6258E-3     1.111   
   0.8108       0.6380E-3     1.112       0.6377E-3     1.111   
   0.8258       0.6499E-3     1.112       0.6497E-3     1.111   
   0.8408       0.6619E-3     1.112       0.6616E-3     1.111   
   0.8559       0.6738E-3     1.112       0.6736E-3     1.111   
   0.8709       0.6858E-3     1.112       0.6855E-3     1.111   
   0.8859       0.6978E-3     1.112       0.6975E-3     1.111   
   0.9009       0.7098E-3     1.113       0.7095E-3     1.112   
   0.9159       0.7218E-3     1.113       0.7215E-3     1.112   
   0.9309       0.7338E-3     1.113       0.7335E-3     1.112   
   0.9459       0.7458E-3     1.113       0.7455E-3     1.112   
   0.9610       0.7578E-3     1.113       0.7575E-3     1.112   
   0.9760       0.7698E-3     1.113       0.7695E-3     1.112   
   0.9910       0.7819E-3     1.113       0.7816E-3     1.112   
    1.006       0.7939E-3     1.113       0.7936E-3     1.112   
    1.021       0.8060E-3     1.113       0.8057E-3     1.112   
    1.036       0.8180E-3     1.114       0.8177E-3     1.113   
    1.051       0.8301E-3     1.114       0.8298E-3     1.113   
    1.066       0.8422E-3     1.114       0.8419E-3     1.113   
    1.081       0.8543E-3     1.114       0.8539E-3     1.113   
    1.096       0.8664E-3     1.114       0.8660E-3     1.113   
    1.111       0.8785E-3     1.114       0.8782E-3     1.113   
    1.126       0.8906E-3     1.114       0.8903E-3     1.113   
    1.141       0.9027E-3     1.114       0.9024E-3     1.114   
    1.156       0.9149E-3     1.115       0.9145E-3     1.114   
    1.171       0.9270E-3     1.115       0.9267E-3     1.114   
    1.186       0.9392E-3     1.115       0.9388E-3     1.114   
    1.201       0.9514E-3     1.115       0.9510E-3     1.114   
    1.216       0.9635E-3     1.115       0.9632E-3     1.114   
    1.231       0.9757E-3     1.115       0.9754E-3     1.114   
    1.246       0.9879E-3     1.115       0.9876E-3     1.114   
    1.261       0.1000E-2     1.116       0.9998E-3     1.115   
    1.276       0.1012E-2     1.116       0.1012E-2     1.115   
    1.291       0.1025E-2     1.116       0.1024E-2     1.115   
    1.306       0.1037E-2     1.116       0.1037E-2     1.115   
    1.321       0.1049E-2     1.116       0.1049E-2     1.115   
    1.336       0.1061E-2     1.116       0.1061E-2     1.115   
    1.351       0.1074E-2     1.117       0.1073E-2     1.116   
    1.366       0.1086E-2     1.117       0.1086E-2     1.116   
    1.381       0.1098E-2     1.117       0.1098E-2     1.116   
    1.396       0.1111E-2     1.117       0.1110E-2     1.116   
    1.411       0.1123E-2     1.117       0.1123E-2     1.116   
    1.426       0.1135E-2     1.117       0.1135E-2     1.116   
    1.441       0.1148E-2     1.118       0.1147E-2     1.117   
    1.456       0.1160E-2     1.118       0.1160E-2     1.117   
    1.471       0.1172E-2     1.118       0.1172E-2     1.117   
    1.486       0.1185E-2     1.118       0.1184E-2     1.117   
    1.502       0.1197E-2     1.118       0.1197E-2     1.117   
    1.517       0.1210E-2     1.118       0.1209E-2     1.117   
    1.532       0.1222E-2     1.119       0.1222E-2     1.118   
    1.547       0.1235E-2     1.119       0.1234E-2     1.118   
    1.562       0.1247E-2     1.119       0.1247E-2     1.118   
    1.577       0.1260E-2     1.119       0.1259E-2     1.118   
    1.592       0.1272E-2     1.119       0.1272E-2     1.118   
    1.607       0.1285E-2     1.120       0.1284E-2     1.119   
    1.622       0.1297E-2     1.120       0.1297E-2     1.119   
    1.637       0.1310E-2     1.120       0.1309E-2     1.119   
    1.652       0.1322E-2     1.120       0.1322E-2     1.119   
    1.667       0.1335E-2     1.120       0.1334E-2     1.119   
    1.682       0.1347E-2     1.121       0.1347E-2     1.120   
    1.697       0.1360E-2     1.121       0.1360E-2     1.120   
    1.712       0.1373E-2     1.121       0.1372E-2     1.120   
    1.727       0.1385E-2     1.121       0.1385E-2     1.120   
    1.742       0.1398E-2     1.121       0.1398E-2     1.120   
    1.757       0.1411E-2     1.122       0.1410E-2     1.121   
    1.772       0.1423E-2     1.122       0.1423E-2     1.121   
    1.787       0.1436E-2     1.122       0.1436E-2     1.121   
    1.802       0.1449E-2     1.122       0.1448E-2     1.121   
    1.817       0.1462E-2     1.122       0.1461E-2     1.121   
    1.832       0.1474E-2     1.123       0.1474E-2     1.122   
    1.847       0.1487E-2     1.123       0.1487E-2     1.122   
    1.862       0.1500E-2     1.123       0.1499E-2     1.122   
    1.877       0.1513E-2     1.123       0.1512E-2     1.122   
    1.892       0.1526E-2     1.124       0.1525E-2     1.123   
    1.907       0.1538E-2     1.124       0.1538E-2     1.123   
    1.922       0.1551E-2     1.124       0.1551E-2     1.123   
    1.937       0.1564E-2     1.124       0.1564E-2     1.123   
    1.952       0.1577E-2     1.124       0.1577E-2     1.124   
    1.967       0.1590E-2     1.125       0.1590E-2     1.124   
    1.982       0.1603E-2     1.125       0.1602E-2     1.124   
    1.997       0.1616E-2     1.125       0.1615E-2     1.124   
    2.012       0.1629E-2     1.125       0.1628E-2     1.124   
    2.027       0.1642E-2     1.126       0.1641E-2     1.125   
    2.042       0.1655E-2     1.126       0.1654E-2     1.125   
    2.057       0.1668E-2     1.126       0.1667E-2     1.125   
    2.072       0.1681E-2     1.126       0.1681E-2     1.125   
    2.087       0.1694E-2     1.127       0.1694E-2     1.126   
    2.102       0.1707E-2     1.127       0.1707E-2     1.126   
    2.117       0.1720E-2     1.127       0.1720E-2     1.126   
    2.132       0.1733E-2     1.127       0.1733E-2     1.127   
    2.147       0.1747E-2     1.128       0.1746E-2     1.127   
    2.162       0.1760E-2     1.128       0.1759E-2     1.127   
    2.177       0.1773E-2     1.128       0.1773E-2     1.127   
    2.192       0.1786E-2     1.128       0.1786E-2     1.128   
    2.207       0.1799E-2     1.129       0.1799E-2     1.128   
    2.222       0.1813E-2     1.129       0.1812E-2     1.128   
    2.237       0.1826E-2     1.129       0.1826E-2     1.128   
    2.252       0.1839E-2     1.130       0.1839E-2     1.129   
    2.267       0.1853E-2     1.130       0.1852E-2     1.129   
    2.282       0.1866E-2     1.130       0.1866E-2     1.129   
    2.297       0.1879E-2     1.130       0.1879E-2     1.129   
    2.312       0.1893E-2     1.131       0.1892E-2     1.130   
    2.327       0.1906E-2     1.131       0.1906E-2     1.130   
    2.342       0.1920E-2     1.131       0.1919E-2     1.130   
    2.357       0.1933E-2     1.132       0.1933E-2     1.131   
    2.372       0.1947E-2     1.132       0.1946E-2     1.131   
    2.387       0.1960E-2     1.132       0.1960E-2     1.131   
    2.402       0.1974E-2     1.132       0.1973E-2     1.132   
    2.417       0.1987E-2     1.133       0.1987E-2     1.132   
    2.432       0.2001E-2     1.133       0.2000E-2     1.132   
    2.447       0.2014E-2     1.133       0.2014E-2     1.132   
    2.462       0.2028E-2     1.134       0.2028E-2     1.133   
    2.477       0.2042E-2     1.134       0.2041E-2     1.133   
    2.492       0.2055E-2     1.134       0.2055E-2     1.133   
    2.508       0.2069E-2     1.135       0.2069E-2     1.134   
    2.523       0.2083E-2     1.135       0.2083E-2     1.134   
    2.538       0.2097E-2     1.135       0.2096E-2     1.134   
    2.553       0.2111E-2     1.136       0.2110E-2     1.135   
    2.568       0.2124E-2     1.136       0.2124E-2     1.135   
    2.583       0.2138E-2     1.136       0.2138E-2     1.135   
    2.598       0.2152E-2     1.136       0.2152E-2     1.136   
    2.613       0.2166E-2     1.137       0.2166E-2     1.136   
    2.628       0.2180E-2     1.137       0.2180E-2     1.136   
    2.643       0.2194E-2     1.137       0.2193E-2     1.137   
    2.658       0.2208E-2     1.138       0.2207E-2     1.137   
    2.673       0.2222E-2     1.138       0.2221E-2     1.137   
    2.688       0.2236E-2     1.138       0.2236E-2     1.138   
    2.703       0.2250E-2     1.139       0.2250E-2     1.138   
    2.718       0.2264E-2     1.139       0.2264E-2     1.138   
    2.733       0.2278E-2     1.139       0.2278E-2     1.139   
    2.748       0.2292E-2     1.140       0.2292E-2     1.139   
    2.763       0.2307E-2     1.140       0.2306E-2     1.139   
    2.778       0.2321E-2     1.141       0.2320E-2     1.140   
    2.793       0.2335E-2     1.141       0.2335E-2     1.140   
    2.808       0.2349E-2     1.141       0.2349E-2     1.140   
    2.823       0.2364E-2     1.142       0.2363E-2     1.141   
    2.838       0.2378E-2     1.142       0.2378E-2     1.141   
    2.853       0.2392E-2     1.142       0.2392E-2     1.141   
    2.868       0.2407E-2     1.143       0.2406E-2     1.142   
    2.883       0.2421E-2     1.143       0.2421E-2     1.142   
    2.898       0.2435E-2     1.143       0.2435E-2     1.142   
    2.913       0.2450E-2     1.144       0.2450E-2     1.143   
    2.928       0.2464E-2     1.144       0.2464E-2     1.143   
    2.943       0.2479E-2     1.144       0.2479E-2     1.144   
    2.958       0.2494E-2     1.145       0.2493E-2     1.144   
    2.973       0.2508E-2     1.145       0.2508E-2     1.144   
    2.988       0.2523E-2     1.146       0.2523E-2     1.145   
    3.003       0.2538E-2     1.146       0.2537E-2     1.145   
    3.018       0.2552E-2     1.146       0.2552E-2     1.145   
    3.033       0.2567E-2     1.147       0.2567E-2     1.146   
    3.048       0.2582E-2     1.147       0.2582E-2     1.146   
    3.063       0.2597E-2     1.148       0.2596E-2     1.147   
    3.078       0.2611E-2     1.148       0.2611E-2     1.147   
    3.093       0.2626E-2     1.148       0.2626E-2     1.147   
    3.108       0.2641E-2     1.149       0.2641E-2     1.148   
    3.123       0.2656E-2     1.149       0.2656E-2     1.148   
    3.138       0.2671E-2     1.149       0.2671E-2     1.149   
    3.153       0.2686E-2     1.150       0.2686E-2     1.149   
    3.168       0.2701E-2     1.150       0.2701E-2     1.149   
    3.183       0.2716E-2     1.151       0.2716E-2     1.150   
    3.198       0.2731E-2     1.151       0.2731E-2     1.150   
    3.213       0.2747E-2     1.152       0.2746E-2     1.151   
    3.228       0.2762E-2     1.152       0.2762E-2     1.151   
    3.243       0.2777E-2     1.152       0.2777E-2     1.151   
    3.258       0.2792E-2     1.153       0.2792E-2     1.152   
    3.273       0.2808E-2     1.153       0.2807E-2     1.152   
    3.288       0.2823E-2     1.154       0.2823E-2     1.153   
    3.303       0.2838E-2     1.154       0.2838E-2     1.153   
    3.318       0.2854E-2     1.154       0.2854E-2     1.154   
    3.333       0.2869E-2     1.155       0.2869E-2     1.154   
    3.348       0.2885E-2     1.155       0.2885E-2     1.154   
    3.363       0.2900E-2     1.156       0.2900E-2     1.155   
    3.378       0.2916E-2     1.156       0.2916E-2     1.155   
    3.393       0.2931E-2     1.157       0.2931E-2     1.156   
    3.408       0.2947E-2     1.157       0.2947E-2     1.156   
    3.423       0.2963E-2     1.158       0.2963E-2     1.157   
    3.438       0.2978E-2     1.158       0.2978E-2     1.157   
    3.453       0.2994E-2     1.158       0.2994E-2     1.157   
    3.468       0.3010E-2     1.159       0.3010E-2     1.158   
    3.483       0.3026E-2     1.159       0.3026E-2     1.158   
    3.498       0.3042E-2     1.160       0.3042E-2     1.159   
    3.514       0.3058E-2     1.160       0.3058E-2     1.159   
    3.529       0.3074E-2     1.161       0.3074E-2     1.160   
    3.544       0.3090E-2     1.161       0.3090E-2     1.160   
    3.559       0.3106E-2     1.162       0.3106E-2     1.161   
    3.574       0.3122E-2     1.162       0.3122E-2     1.161   
    3.589       0.3138E-2     1.163       0.3138E-2     1.162   
    3.604       0.3154E-2     1.163       0.3154E-2     1.162   
    3.619       0.3170E-2     1.164       0.3171E-2     1.163   
    3.634       0.3187E-2     1.164       0.3187E-2     1.163   
    3.649       0.3203E-2     1.164       0.3203E-2     1.164   
    3.664       0.3219E-2     1.165       0.3220E-2     1.164   
    3.679       0.3236E-2     1.165       0.3236E-2     1.164   
    3.694       0.3252E-2     1.166       0.3253E-2     1.165   
    3.709       0.3269E-2     1.166       0.3269E-2     1.165   
    3.724       0.3285E-2     1.167       0.3286E-2     1.166   
    3.739       0.3302E-2     1.167       0.3302E-2     1.166   
    3.754       0.3319E-2     1.168       0.3319E-2     1.167   
    3.769       0.3335E-2     1.168       0.3336E-2     1.167   
    3.784       0.3352E-2     1.169       0.3352E-2     1.168   
    3.799       0.3369E-2     1.169       0.3369E-2     1.168   
    3.814       0.3386E-2     1.170       0.3386E-2     1.169   
    3.829       0.3402E-2     1.170       0.3403E-2     1.169   
    3.844       0.3419E-2     1.171       0.3420E-2     1.170   
    3.859       0.3436E-2     1.171       0.3437E-2     1.170   
    3.874       0.3453E-2     1.172       0.3454E-2     1.171   
    3.889       0.3470E-2     1.172       0.3471E-2     1.172   
    3.904       0.3488E-2     1.173       0.3488E-2     1.172   
    3.919       0.3505E-2     1.174       0.3505E-2     1.173   
    3.934       0.3522E-2     1.174       0.3523E-2     1.173   
    3.949       0.3539E-2     1.175       0.3540E-2     1.174   
    3.964       0.3557E-2     1.175       0.3557E-2     1.174   
    3.979       0.3574E-2     1.176       0.3575E-2     1.175   
    3.994       0.3591E-2     1.176       0.3592E-2     1.175   
    4.009       0.3609E-2     1.177       0.3610E-2     1.176   
    4.024       0.3626E-2     1.177       0.3627E-2     1.176   
    4.039       0.3644E-2     1.178       0.3645E-2     1.177   
    4.054       0.3662E-2     1.178       0.3662E-2     1.177   
    4.069       0.3679E-2     1.179       0.3680E-2     1.178   
    4.084       0.3697E-2     1.179       0.3698E-2     1.179   
    4.099       0.3715E-2     1.180       0.3716E-2     1.179   
    4.114       0.3733E-2     1.181       0.3734E-2     1.180   
    4.129       0.3751E-2     1.181       0.3752E-2     1.180   
    4.144       0.3769E-2     1.182       0.3770E-2     1.181   
    4.159       0.3787E-2     1.182       0.3788E-2     1.181   
    4.174       0.3805E-2     1.183       0.3806E-2     1.182   
    4.189       0.3823E-2     1.183       0.3824E-2     1.182   
    4.204       0.3841E-2     1.184       0.3842E-2     1.183   
    4.219       0.3859E-2     1.185       0.3860E-2     1.184   
    4.234       0.3877E-2     1.185       0.3879E-2     1.184   
