#                                                           
#  ____  ____     _       ____    ____  ______      ___     
# |_  _||_  _|   / \     |_   \  /   _||_   _ \   ."   `.   
#   \ \  / /    / _ \      |   \/   |    | |_) | /  .-.  \  
#    \ \/ /    / ___ \     | |\  /| |    |  __". | |   | |  
#    _|  |_  _/ /   \ \_  _| |_\/_| |_  _| |__) |\  `-"  /  
#   |______||____| |____||_____||_____||_______/  `.___."   
#                                                           
#                                                           
#                                                           
#        Version 4.2.0 Revision 14319 Hash 8432f48          
#                   MPI+SLK+OpenMP Build                    
#                http://www.yambo-code.org                  
#
# EELS @ Q(1)  [q->0 direction]:0.1000E-4  0.000     0.000   
#
#
# - Energies      are Teter 93(XC)
# - Wavefunctions are Teter 93(XC)
#
# - The Green`s function is Retarded -
# - Using the Length Gauge -
# - [r,Vnl] *is* included -
#
#   BSK|Identifier              :3730
#      |Dimension               :199
#      |Bands                   :1 - 200
#      |Exchange           [res]: yes
#      |Correlation        [res]: no
#      |Kernel`s coupling       : no
#      |Exchange           [cpl]: no
#      |Correlation        [cpl]: no
#      |W interaction is bare   : no
#      |ALDA kernel in R-space  : yes
#      |RL vectors    [exchange]:9045
#      |E/h energy range    [ev]:-1.000000 - -1.000000
#      |Coupling range     [o/o]: 100.0000 -  100.0000
#
#  E/ev[1]    EEL-Im[2]  EEL-Re[3]  EELo-Im[4] EELo-Re[5]
#
  0.000000  -0.000000  -0.987977  -0.000000  -0.983473
 0.1502E-1  0.3095E-6  -.9880     0.7386E-6  -.9835   
 0.3003E-1  0.6190E-6  -.9880     0.1477E-5  -.9835   
 0.4505E-1  0.9285E-6  -.9880     0.2216E-5  -.9835   
 0.6006E-1  0.1238E-5  -.9880     0.2955E-5  -.9835   
 0.7508E-1  0.1548E-5  -.9880     0.3694E-5  -.9835   
 0.9009E-1  0.1857E-5  -.9880     0.4433E-5  -.9835   
 0.1051     0.2167E-5  -.9880     0.5172E-5  -.9835   
 0.1201     0.2477E-5  -.9880     0.5912E-5  -.9835   
 0.1351     0.2787E-5  -.9880     0.6651E-5  -.9835   
 0.1502     0.3096E-5  -.9880     0.7392E-5  -.9835   
 0.1652     0.3406E-5  -.9880     0.8132E-5  -.9835   
 0.1802     0.3716E-5  -.9880     0.8872E-5  -.9835   
 0.1952     0.4026E-5  -.9880     0.9613E-5  -.9835   
 0.2102     0.4337E-5  -.9880     0.1035E-4  -.9835   
 0.2252     0.4647E-5  -.9880     0.1110E-4  -.9835   
 0.2402     0.4957E-5  -.9880     0.1184E-4  -.9835   
 0.2553     0.5268E-5  -.9880     0.1258E-4  -.9835   
 0.2703     0.5579E-5  -.9880     0.1332E-4  -.9835   
 0.2853     0.5890E-5  -.9880     0.1407E-4  -.9835   
 0.3003     0.6201E-5  -.9880     0.1481E-4  -.9835   
 0.3153     0.6512E-5  -.9880     0.1556E-4  -.9834   
 0.3303     0.6823E-5  -.9880     0.1630E-4  -.9834   
 0.3453     0.7135E-5  -.9880     0.1705E-4  -.9834   
 0.3604     0.7446E-5  -.9880     0.1780E-4  -.9834   
 0.3754     0.7758E-5  -.9880     0.1854E-4  -.9834   
 0.3904     0.8070E-5  -.9880     0.1929E-4  -.9834   
 0.4054     0.8383E-5  -.9880     0.2004E-4  -.9834   
 0.4204     0.8695E-5  -.9880     0.2079E-4  -.9834   
 0.4354     0.9008E-5  -.9880     0.2154E-4  -.9834   
 0.4505     0.9321E-5  -.9880     0.2230E-4  -.9834   
 0.4655     0.9634E-5  -.9880     0.2305E-4  -.9834   
 0.4805     0.9948E-5  -.9880     0.2380E-4  -.9834   
 0.4955     0.1026E-4  -.9880     0.2456E-4  -.9834   
 0.5105     0.1058E-4  -.9880     0.2531E-4  -.9834   
 0.5255     0.1089E-4  -.9879     0.2607E-4  -.9834   
 0.5405     0.1120E-4  -.9879     0.2683E-4  -.9834   
 0.5556     0.1152E-4  -.9879     0.2759E-4  -.9834   
 0.5706     0.1183E-4  -.9879     0.2835E-4  -.9834   
 0.5856     0.1215E-4  -.9879     0.2911E-4  -.9834   
 0.6006     0.1247E-4  -.9879     0.2987E-4  -.9834   
 0.6156     0.1278E-4  -.9879     0.3063E-4  -.9834   
 0.6306     0.1310E-4  -.9879     0.3140E-4  -.9834   
 0.6456     0.1341E-4  -.9879     0.3217E-4  -.9834   
 0.6607     0.1373E-4  -.9879     0.3293E-4  -.9834   
 0.6757     0.1405E-4  -.9879     0.3370E-4  -.9834   
 0.6907     0.1437E-4  -.9879     0.3447E-4  -.9834   
 0.7057     0.1469E-4  -.9879     0.3524E-4  -.9833   
 0.7207     0.1500E-4  -.9879     0.3602E-4  -.9833   
 0.7357     0.1532E-4  -.9879     0.3679E-4  -.9833   
 0.7508     0.1564E-4  -.9879     0.3757E-4  -.9833   
 0.7658     0.1596E-4  -.9879     0.3835E-4  -.9833   
 0.7808     0.1628E-4  -.9879     0.3913E-4  -.9833   
 0.7958     0.1660E-4  -.9879     0.3991E-4  -.9833   
 0.8108     0.1692E-4  -.9879     0.4069E-4  -.9833   
 0.8258     0.1725E-4  -.9879     0.4148E-4  -.9833   
 0.8408     0.1757E-4  -.9879     0.4226E-4  -.9833   
 0.8559     0.1789E-4  -.9879     0.4305E-4  -.9833   
 0.8709     0.1821E-4  -.9879     0.4384E-4  -.9833   
 0.8859     0.1854E-4  -.9879     0.4463E-4  -.9833   
 0.9009     0.1886E-4  -.9879     0.4542E-4  -.9833   
 0.9159     0.1918E-4  -.9879     0.4622E-4  -.9833   
 0.9309     0.1951E-4  -.9879     0.4702E-4  -.9833   
 0.9459     0.1983E-4  -.9879     0.4782E-4  -.9833   
 0.9610     0.2016E-4  -.9879     0.4862E-4  -.9832   
 0.9760     0.2049E-4  -.9879     0.4942E-4  -.9832   
 0.9910     0.2081E-4  -.9879     0.5023E-4  -.9832   
  1.006     0.2114E-4  -.9879     0.5104E-4  -.9832   
  1.021     0.2147E-4  -.9879     0.5185E-4  -.9832   
  1.036     0.2180E-4  -.9879     0.5266E-4  -.9832   
  1.051     0.2213E-4  -.9879     0.5347E-4  -.9832   
  1.066     0.2246E-4  -.9879     0.5429E-4  -.9832   
  1.081     0.2279E-4  -.9879     0.5511E-4  -.9832   
  1.096     0.2312E-4  -.9879     0.5593E-4  -.9832   
  1.111     0.2345E-4  -.9878     0.5676E-4  -.9832   
  1.126     0.2378E-4  -.9878     0.5758E-4  -.9832   
  1.141     0.2411E-4  -.9878     0.5841E-4  -.9831   
  1.156     0.2445E-4  -.9878     0.5924E-4  -.9831   
  1.171     0.2478E-4  -.9878     0.6008E-4  -.9831   
  1.186     0.2512E-4  -.9878     0.6091E-4  -.9831   
  1.201     0.2545E-4  -.9878     0.6175E-4  -.9831   
  1.216     0.2579E-4  -.9878     0.6259E-4  -.9831   
  1.231     0.2613E-4  -.9878     0.6344E-4  -.9831   
  1.246     0.2646E-4  -.9878     0.6429E-4  -.9831   
  1.261     0.2680E-4  -.9878     0.6514E-4  -.9831   
  1.276     0.2714E-4  -.9878     0.6599E-4  -.9831   
  1.291     0.2748E-4  -.9878     0.6685E-4  -.9831   
  1.306     0.2782E-4  -.9878     0.6771E-4  -.9830   
  1.321     0.2816E-4  -.9878     0.6857E-4  -.9830   
  1.336     0.2850E-4  -.9878     0.6943E-4  -.9830   
  1.351     0.2885E-4  -.9878     0.7030E-4  -.9830   
  1.366     0.2919E-4  -.9878     0.7117E-4  -.9830   
  1.381     0.2954E-4  -.9878     0.7205E-4  -.9830   
  1.396     0.2988E-4  -.9878     0.7292E-4  -.9830   
  1.411     0.3023E-4  -.9878     0.7381E-4  -.9830   
  1.426     0.3057E-4  -.9878     0.7469E-4  -.9830   
  1.441     0.3092E-4  -.9878     0.7558E-4  -.9829   
  1.456     0.3127E-4  -.9878     0.7647E-4  -.9829   
  1.471     0.3162E-4  -.9877     0.7736E-4  -.9829   
  1.486     0.3197E-4  -.9877     0.7826E-4  -.9829   
  1.502     0.3232E-4  -.9877     0.7916E-4  -.9829   
  1.517     0.3267E-4  -.9877     0.8007E-4  -.9829   
  1.532     0.3302E-4  -.9877     0.8098E-4  -.9829   
  1.547     0.3338E-4  -.9877     0.8189E-4  -.9829   
  1.562     0.3373E-4  -.9877     0.8280E-4  -.9829   
  1.577     0.3409E-4  -.9877     0.8372E-4  -.9828   
  1.592     0.3445E-4  -.9877     0.8465E-4  -.9828   
  1.607     0.3480E-4  -.9877     0.8558E-4  -.9828   
  1.622     0.3516E-4  -.9877     0.8651E-4  -.9828   
  1.637     0.3552E-4  -.9877     0.8744E-4  -.9828   
  1.652     0.3588E-4  -.9877     0.8838E-4  -.9828   
  1.667     0.3624E-4  -.9877     0.8933E-4  -.9828   
  1.682     0.3661E-4  -.9877     0.9027E-4  -.9827   
  1.697     0.3697E-4  -.9877     0.9123E-4  -.9827   
  1.712     0.3733E-4  -.9877     0.9218E-4  -.9827   
  1.727     0.3770E-4  -.9877     0.9314E-4  -.9827   
  1.742     0.3807E-4  -.9877     0.9411E-4  -.9827   
  1.757     0.3843E-4  -.9876     0.9508E-4  -.9827   
  1.772     0.3880E-4  -.9876     0.9605E-4  -.9827   
  1.787     0.3917E-4  -.9876     0.9703E-4  -.9826   
  1.802     0.3954E-4  -.9876     0.9801E-4  -.9826   
  1.817     0.3992E-4  -.9876     0.9900E-4  -.9826   
  1.832     0.4029E-4  -.9876     0.9999E-4  -.9826   
  1.847     0.4066E-4  -.9876     0.1010E-3  -.9826   
  1.862     0.4104E-4  -.9876     0.1020E-3  -.9826   
  1.877     0.4142E-4  -.9876     0.1030E-3  -.9826   
  1.892     0.4179E-4  -.9876     0.1040E-3  -.9825   
  1.907     0.4217E-4  -.9876     0.1050E-3  -.9825   
  1.922     0.4255E-4  -.9876     0.1060E-3  -.9825   
  1.937     0.4294E-4  -.9876     0.1071E-3  -.9825   
  1.952     0.4332E-4  -.9876     0.1081E-3  -.9825   
  1.967     0.4370E-4  -.9876     0.1091E-3  -.9825   
  1.982     0.4409E-4  -.9876     0.1102E-3  -.9824   
  1.997     0.4448E-4  -.9876     0.1112E-3  -.9824   
  2.012     0.4486E-4  -.9875     0.1123E-3  -.9824   
  2.027     0.4525E-4  -.9875     0.1133E-3  -.9824   
  2.042     0.4564E-4  -.9875     0.1144E-3  -.9824   
  2.057     0.4604E-4  -.9875     0.1155E-3  -.9824   
  2.072     0.4643E-4  -.9875     0.1166E-3  -.9823   
  2.087     0.4682E-4  -.9875     0.1176E-3  -.9823   
  2.102     0.4722E-4  -.9875     0.1187E-3  -.9823   
  2.117     0.4762E-4  -.9875     0.1198E-3  -.9823   
  2.132     0.4802E-4  -.9875     0.1209E-3  -.9823   
  2.147     0.4842E-4  -.9875     0.1220E-3  -.9823   
  2.162     0.4882E-4  -.9875     0.1231E-3  -.9822   
  2.177     0.4922E-4  -.9875     0.1243E-3  -.9822   
  2.192     0.4963E-4  -.9875     0.1254E-3  -.9822   
  2.207     0.5003E-4  -.9875     0.1265E-3  -.9822   
  2.222     0.5044E-4  -.9874     0.1277E-3  -.9822   
  2.237     0.5085E-4  -.9874     0.1288E-3  -.9821   
  2.252     0.5126E-4  -.9874     0.1299E-3  -.9821   
  2.267     0.5167E-4  -.9874     0.1311E-3  -.9821   
  2.282     0.5209E-4  -.9874     0.1323E-3  -.9821   
  2.297     0.5250E-4  -.9874     0.1334E-3  -.9821   
  2.312     0.5292E-4  -.9874     0.1346E-3  -.9820   
  2.327     0.5334E-4  -.9874     0.1358E-3  -.9820   
  2.342     0.5376E-4  -.9874     0.1370E-3  -.9820   
  2.357     0.5418E-4  -.9874     0.1382E-3  -.9820   
  2.372     0.5460E-4  -.9874     0.1394E-3  -.9820   
  2.387     0.5503E-4  -.9874     0.1406E-3  -.9819   
  2.402     0.5545E-4  -.9873     0.1418E-3  -.9819   
  2.417     0.5588E-4  -.9873     0.1431E-3  -.9819   
  2.432     0.5631E-4  -.9873     0.1443E-3  -.9819   
  2.447     0.5674E-4  -.9873     0.1456E-3  -.9819   
  2.462     0.5718E-4  -.9873     0.1468E-3  -.9818   
  2.477     0.5761E-4  -.9873     0.1481E-3  -.9818   
  2.492     0.5805E-4  -.9873     0.1493E-3  -.9818   
  2.508     0.5849E-4  -.9873     0.1506E-3  -.9818   
  2.523     0.5893E-4  -.9873     0.1519E-3  -.9817   
  2.538     0.5937E-4  -.9873     0.1532E-3  -.9817   
  2.553     0.5982E-4  -.9873     0.1545E-3  -.9817   
  2.568     0.6027E-4  -.9873     0.1558E-3  -.9817   
  2.583     0.6071E-4  -.9872     0.1571E-3  -.9817   
  2.598     0.6117E-4  -.9872     0.1584E-3  -.9816   
  2.613     0.6162E-4  -.9872     0.1598E-3  -.9816   
  2.628     0.6207E-4  -.9872     0.1611E-3  -.9816   
  2.643     0.6253E-4  -.9872     0.1625E-3  -.9816   
  2.658     0.6299E-4  -.9872     0.1638E-3  -.9815   
  2.673     0.6345E-4  -.9872     0.1652E-3  -.9815   
  2.688     0.6391E-4  -.9872     0.1666E-3  -.9815   
  2.703     0.6437E-4  -.9872     0.1680E-3  -.9815   
  2.718     0.6484E-4  -.9872     0.1694E-3  -.9814   
  2.733     0.6531E-4  -.9871     0.1708E-3  -.9814   
  2.748     0.6578E-4  -.9871     0.1722E-3  -.9814   
  2.763     0.6625E-4  -.9871     0.1737E-3  -.9814   
  2.778     0.6673E-4  -.9871     0.1751E-3  -.9813   
  2.793     0.6721E-4  -.9871     0.1766E-3  -.9813   
  2.808     0.6769E-4  -.9871     0.1780E-3  -.9813   
  2.823     0.6817E-4  -.9871     0.1795E-3  -.9812   
  2.838     0.6865E-4  -.9871     0.1810E-3  -.9812   
  2.853     0.6914E-4  -.9871     0.1825E-3  -.9812   
  2.868     0.6963E-4  -.9871     0.1840E-3  -.9812   
  2.883     0.7012E-4  -.9870     0.1855E-3  -.9811   
  2.898     0.7061E-4  -.9870     0.1870E-3  -.9811   
  2.913     0.7111E-4  -.9870     0.1886E-3  -.9811   
  2.928     0.7161E-4  -.9870     0.1901E-3  -.9811   
  2.943     0.7211E-4  -.9870     0.1917E-3  -.9810   
  2.958     0.7261E-4  -.9870     0.1932E-3  -.9810   
  2.973     0.7312E-4  -.9870     0.1948E-3  -.9810   
  2.988     0.7362E-4  -.9870     0.1964E-3  -.9809   
  3.003     0.7413E-4  -.9870     0.1980E-3  -.9809   
  3.018     0.7465E-4  -.9869     0.1997E-3  -.9809   
  3.033     0.7516E-4  -.9869     0.2013E-3  -.9808   
  3.048     0.7568E-4  -.9869     0.2029E-3  -.9808   
  3.063     0.7620E-4  -.9869     0.2046E-3  -.9808   
  3.078     0.7673E-4  -.9869     0.2063E-3  -.9808   
  3.093     0.7725E-4  -.9869     0.2080E-3  -.9807   
  3.108     0.7778E-4  -.9869     0.2097E-3  -.9807   
  3.123     0.7831E-4  -.9869     0.2114E-3  -.9807   
  3.138     0.7885E-4  -.9869     0.2131E-3  -.9806   
  3.153     0.7938E-4  -.9868     0.2148E-3  -.9806   
  3.168     0.7992E-4  -.9868     0.2166E-3  -.9806   
  3.183     0.8047E-4  -.9868     0.2184E-3  -.9805   
  3.198     0.8101E-4  -.9868     0.2202E-3  -.9805   
  3.213     0.8156E-4  -.9868     0.2220E-3  -.9805   
  3.228     0.8211E-4  -.9868     0.2238E-3  -.9804   
  3.243     0.8267E-4  -.9868     0.2256E-3  -.9804   
  3.258     0.8323E-4  -.9868     0.2274E-3  -.9804   
  3.273     0.8379E-4  -.9867     0.2293E-3  -.9803   
  3.288     0.8435E-4  -.9867     0.2312E-3  -.9803   
  3.303     0.8492E-4  -.9867     0.2331E-3  -.9803   
  3.318     0.8549E-4  -.9867     0.2350E-3  -.9802   
  3.333     0.8606E-4  -.9867     0.2369E-3  -.9802   
  3.348     0.8664E-4  -.9867     0.2388E-3  -.9802   
  3.363     0.8722E-4  -.9867     0.2408E-3  -.9801   
  3.378     0.8780E-4  -.9867     0.2428E-3  -.9801   
  3.393     0.8838E-4  -.9866     0.2447E-3  -.9800   
  3.408     0.8897E-4  -.9866     0.2468E-3  -.9800   
  3.423     0.8957E-4  -.9866     0.2488E-3  -.9800   
  3.438     0.9016E-4  -.9866     0.2508E-3  -.9799   
  3.453     0.9076E-4  -.9866     0.2529E-3  -.9799   
  3.468     0.9136E-4  -.9866     0.2550E-3  -.9799   
  3.483     0.9197E-4  -.9866     0.2571E-3  -.9798   
  3.498     0.9258E-4  -.9865     0.2592E-3  -.9798   
  3.514     0.9319E-4  -.9865     0.2613E-3  -.9797   
  3.529     0.9381E-4  -.9865     0.2635E-3  -.9797   
  3.544     0.9443E-4  -.9865     0.2656E-3  -.9797   
  3.559     0.9505E-4  -.9865     0.2678E-3  -.9796   
  3.574     0.9568E-4  -.9865     0.2700E-3  -.9796   
  3.589     0.9631E-4  -.9865     0.2723E-3  -.9795   
  3.604     0.9695E-4  -.9864     0.2745E-3  -.9795   
  3.619     0.9759E-4  -.9864     0.2768E-3  -.9795   
  3.634     0.9823E-4  -.9864     0.2791E-3  -.9794   
  3.649     0.9888E-4  -.9864     0.2814E-3  -.9794   
  3.664     0.9953E-4  -.9864     0.2838E-3  -.9793   
  3.679     0.1002E-3  -.9864     0.2861E-3  -.9793   
  3.694     0.1008E-3  -.9864     0.2885E-3  -.9792   
  3.709     0.1015E-3  -.9863     0.2909E-3  -.9792   
  3.724     0.1022E-3  -.9863     0.2933E-3  -.9792   
  3.739     0.1028E-3  -.9863     0.2958E-3  -.9791   
  3.754     0.1035E-3  -.9863     0.2983E-3  -.9791   
  3.769     0.1042E-3  -.9863     0.3008E-3  -.9790   
  3.784     0.1049E-3  -.9863     0.3033E-3  -.9790   
  3.799     0.1056E-3  -.9863     0.3059E-3  -.9789   
  3.814     0.1063E-3  -.9862     0.3084E-3  -.9789   
  3.829     0.1070E-3  -.9862     0.3110E-3  -.9788   
  3.844     0.1077E-3  -.9862     0.3137E-3  -.9788   
  3.859     0.1084E-3  -.9862     0.3163E-3  -.9788   
  3.874     0.1091E-3  -.9862     0.3190E-3  -.9787   
  3.889     0.1098E-3  -.9862     0.3217E-3  -.9787   
  3.904     0.1105E-3  -.9861     0.3244E-3  -.9786   
  3.919     0.1112E-3  -.9861     0.3272E-3  -.9786   
  3.934     0.1120E-3  -.9861     0.3300E-3  -.9785   
  3.949     0.1127E-3  -.9861     0.3328E-3  -.9785   
  3.964     0.1134E-3  -.9861     0.3357E-3  -.9784   
  3.979     0.1142E-3  -.9861     0.3385E-3  -.9784   
  3.994     0.1149E-3  -.9860     0.3414E-3  -.9783   
  4.009     0.1157E-3  -.9860     0.3444E-3  -.9783   
  4.024     0.1164E-3  -.9860     0.3473E-3  -.9782   
  4.039     0.1172E-3  -.9860     0.3503E-3  -.9782   
  4.054     0.1180E-3  -.9860     0.3534E-3  -.9781   
  4.069     0.1188E-3  -.9859     0.3564E-3  -.9780   
  4.084     0.1195E-3  -.9859     0.3595E-3  -.9780   
  4.099     0.1203E-3  -.9859     0.3627E-3  -.9779   
  4.114     0.1211E-3  -.9859     0.3658E-3  -.9779   
  4.129     0.1219E-3  -.9859     0.3690E-3  -.9778   
  4.144     0.1227E-3  -.9859     0.3723E-3  -.9778   
  4.159     0.1235E-3  -.9858     0.3755E-3  -.9777   
  4.174     0.1243E-3  -.9858     0.3788E-3  -.9777   
  4.189     0.1251E-3  -.9858     0.3822E-3  -.9776   
  4.204     0.1260E-3  -.9858     0.3855E-3  -.9775   
  4.219     0.1268E-3  -.9858     0.3890E-3  -.9775   
  4.234     0.1276E-3  -.9857     0.3924E-3  -.9774   
  4.249     0.1285E-3  -.9857     0.3959E-3  -.9774   
  4.264     0.1293E-3  -.9857     0.3994E-3  -.9773   
  4.279     0.1302E-3  -.9857     0.4030E-3  -.9772   
  4.294     0.1310E-3  -.9857     0.4066E-3  -.9772   
  4.309     0.1319E-3  -.9856     0.4103E-3  -.9771   
  4.324     0.1328E-3  -.9856     0.4140E-3  -.9771   
  4.339     0.1337E-3  -.9856     0.4177E-3  -.9770   
  4.354     0.1346E-3  -.9856     0.4215E-3  -.9769   
  4.369     0.1354E-3  -.9856     0.4253E-3  -.9769   
  4.384     0.1363E-3  -.9855     0.4292E-3  -.9768   
  4.399     0.1372E-3  -.9855     0.4331E-3  -.9767   
  4.414     0.1382E-3  -.9855     0.4371E-3  -.9767   
  4.429     0.1391E-3  -.9855     0.4411E-3  -.9766   
  4.444     0.1400E-3  -.9855     0.4451E-3  -.9766   
  4.459     0.1409E-3  -.9854     0.4492E-3  -.9765   
  4.474     0.1419E-3  -.9854     0.4534E-3  -.9764   
  4.489     0.1428E-3  -.9854     0.4576E-3  -.9763   
  4.505     0.1438E-3  -.9854     0.4618E-3  -.9763   
  4.520     0.1447E-3  -.9854     0.4662E-3  -.9762   
  4.535     0.1457E-3  -.9853     0.4705E-3  -.9761   
  4.550     0.1467E-3  -.9853     0.4749E-3  -.9761   
  4.565     0.1477E-3  -.9853     0.4794E-3  -.9760   
  4.580     0.1487E-3  -.9853     0.4839E-3  -.9759   
  4.595     0.1497E-3  -.9852     0.4885E-3  -.9759   
  4.610     0.1507E-3  -.9852     0.4931E-3  -.9758   
  4.625     0.1517E-3  -.9852     0.4978E-3  -.9757   
  4.640     0.1527E-3  -.9852     0.5026E-3  -.9756   
  4.655     0.1538E-3  -.9852     0.5074E-3  -.9756   
  4.670     0.1548E-3  -.9851     0.5123E-3  -.9755   
  4.685     0.1559E-3  -.9851     0.5172E-3  -.9754   
  4.700     0.1569E-3  -.9851     0.5223E-3  -.9753   
  4.715     0.1580E-3  -.9851     0.5273E-3  -.9752   
  4.730     0.1591E-3  -.9850     0.5325E-3  -.9752   
  4.745     0.1601E-3  -.9850     0.5377E-3  -.9751   
  4.760     0.1612E-3  -.9850     0.5430E-3  -.9750   
  4.775     0.1623E-3  -.9850     0.5483E-3  -.9749   
  4.790     0.1634E-3  -.9849     0.5537E-3  -.9748   
  4.805     0.1646E-3  -.9849     0.5592E-3  -.9748   
  4.820     0.1657E-3  -.9849     0.5648E-3  -.9747   
  4.835     0.1668E-3  -.9849     0.5704E-3  -.9746   
  4.850     0.1680E-3  -.9848     0.5761E-3  -.9745   
  4.865     0.1691E-3  -.9848     0.5819E-3  -.9744   
  4.880     0.1703E-3  -.9848     0.5878E-3  -.9743   
  4.895     0.1715E-3  -.9848     0.5937E-3  -.9742   
  4.910     0.1727E-3  -.9847     0.5998E-3  -.9741   
  4.925     0.1739E-3  -.9847     0.6059E-3  -.9741   
  4.940     0.1751E-3  -.9847     0.6121E-3  -.9740   
  4.955     0.1763E-3  -.9847     0.6184E-3  -.9739   
  4.970     0.1775E-3  -.9846     0.6248E-3  -.9738   
  4.985     0.1788E-3  -.9846     0.6313E-3  -.9737   
  5.000     0.1800E-3  -.9846     0.6378E-3  -.9736   
