#                                                           
#  __  __   ________   ___ __ __    _______   ______        
# /_/\/_/\ /_______/\ /__//_//_/\ /_______/\ /_____/\       
# \ \ \ \ \\::: _  \ \\::\| \| \ \\::: _  \ \\:::_ \ \      
#  \:\_\ \ \\::(_)  \ \\:.      \ \\::(_)  \/_\:\ \ \ \     
#   \::::_\/ \:: __  \ \\:.\-/\  \ \\::  _  \ \\:\ \ \ \    
#     \::\ \  \:.\ \  \ \\. \  \  \ \\::(_)  \ \\:\_\ \ \   
#      \__\/   \__\/\__\/ \__\/ \__\/ \_______\/ \_____\/   
#                                                           
#                                                           
#        Version 4.2.0 Revision 14319 Hash 8432f48          
#                  MPI+SLK+OpenMP Build                     
#                http://www.yambo-code.org                  
#
# Polarizability ( -<<X>> ) [volume @ Q(1) [q->0 direction]0.1000E-4  0.000     0.000   
#
#
# - Energies      are Teter 93(XC)+Scissor
# - Wavefunctions are Teter 93(XC)
#
# - The Green`s function is Retarded -
# - Using the Length Gauge -
# - [r,Vnl] *is* included -
#
#   BSK|Identifier              :3030
#      |Dimension               :69
#      |Bands                   :1 - 70
#      |Exchange           [res]: yes
#      |Correlation        [res]: yes
#      |Kernel`s coupling       : no
#      |Exchange           [cpl]: no
#      |Correlation        [cpl]: no
#      |W interaction is bare   : no
#      |ALDA kernel in R-space  : no
#      |RL vectors    [exchange]:437
#      |RL vectors [correlation]:619
#      |E/h energy range    [ev]:-1.000000 - -1.000000
#      |Coupling range     [o/o]: 100.0000 -  100.0000
#    W |Interaction is diagonal : no
#      |Matrix size             :1503
#      |Bands                   :1 - 250
#      |e/h energy range    [ev]:-1.000000 - -1.000000
#      |Poles              [o/o]: 100.0000
#      |RL vectors in the sum   :9939
#      |[r,Vnl] included        : yes
#      |Field direction         :0.1000E-4  0.000000  0.000000
#      |Coulomb Cutoff          :none
#      |xc-Kernel               :none
#   RIM|RL components      [col]:0
#      |Random points      [col]:0
#
#  E/ev[1]    ALPHA-Im[2]ALPHA-Re[3]ALPHAo-Im[4ALPHAo-Re[5]
#
   0.00000    0.00000   17.85988    0.00000   10.65261
 0.2002E-1  0.8048E-3   17.86     0.1705E-3   10.65   
 0.4004E-1  0.1610E-2   17.86     0.3409E-3   10.65   
 0.6006E-1  0.2415E-2   17.86     0.5114E-3   10.65   
 0.8008E-1  0.3220E-2   17.86     0.6819E-3   10.65   
 0.1001     0.4025E-2   17.86     0.8524E-3   10.65   
 0.1201     0.4830E-2   17.86     0.1023E-2   10.65   
 0.1401     0.5636E-2   17.86     0.1193E-2   10.65   
 0.1602     0.6442E-2   17.87     0.1364E-2   10.65   
 0.1802     0.7248E-2   17.87     0.1535E-2   10.65   
 0.2002     0.8055E-2   17.87     0.1705E-2   10.65   
 0.2202     0.8862E-2   17.87     0.1876E-2   10.65   
 0.2402     0.9670E-2   17.87     0.2046E-2   10.66   
 0.2603     0.1048E-1   17.87     0.2217E-2   10.66   
 0.2803     0.1129E-1   17.88     0.2388E-2   10.66   
 0.3003     0.1210E-1   17.88     0.2559E-2   10.66   
 0.3203     0.1291E-1   17.88     0.2730E-2   10.66   
 0.3403     0.1372E-1   17.88     0.2900E-2   10.66   
 0.3604     0.1453E-1   17.89     0.3071E-2   10.66   
 0.3804     0.1534E-1   17.89     0.3242E-2   10.66   
 0.4004     0.1615E-1   17.89     0.3414E-2   10.66   
 0.4204     0.1697E-1   17.90     0.3585E-2   10.66   
 0.4404     0.1778E-1   17.90     0.3756E-2   10.66   
 0.4605     0.1860E-1   17.90     0.3927E-2   10.66   
 0.4805     0.1942E-1   17.91     0.4099E-2   10.66   
 0.5005     0.2023E-1   17.91     0.4270E-2   10.66   
 0.5205     0.2105E-1   17.91     0.4442E-2   10.66   
 0.5405     0.2187E-1   17.92     0.4613E-2   10.66   
 0.5606     0.2269E-1   17.92     0.4785E-2   10.67   
 0.5806     0.2352E-1   17.93     0.4957E-2   10.67   
 0.6006     0.2434E-1   17.93     0.5129E-2   10.67   
 0.6206     0.2517E-1   17.94     0.5301E-2   10.67   
 0.6406     0.2599E-1   17.94     0.5473E-2   10.67   
 0.6607     0.2682E-1   17.95     0.5645E-2   10.67   
 0.6807     0.2765E-1   17.95     0.5817E-2   10.67   
 0.7007     0.2848E-1   17.96     0.5990E-2   10.67   
 0.7207     0.2931E-1   17.96     0.6162E-2   10.67   
 0.7407     0.3015E-1   17.97     0.6335E-2   10.68   
 0.7608     0.3098E-1   17.98     0.6508E-2   10.68   
 0.7808     0.3182E-1   17.98     0.6680E-2   10.68   
 0.8008     0.3266E-1   17.99     0.6854E-2   10.68   
 0.8208     0.3350E-1   18.00     0.7027E-2   10.68   
 0.8408     0.3435E-1   18.00     0.7200E-2   10.68   
 0.8609     0.3519E-1   18.01     0.7373E-2   10.68   
 0.8809     0.3604E-1   18.02     0.7547E-2   10.69   
 0.9009     0.3689E-1   18.02     0.7721E-2   10.69   
 0.9209     0.3774E-1   18.03     0.7895E-2   10.69   
 0.9409     0.3859E-1   18.04     0.8069E-2   10.69   
 0.9610     0.3945E-1   18.05     0.8243E-2   10.69   
 0.9810     0.4030E-1   18.06     0.8417E-2   10.69   
  1.001     0.4116E-1   18.06     0.8592E-2   10.70   
  1.021     0.4203E-1   18.07     0.8767E-2   10.70   
  1.041     0.4289E-1   18.08     0.8941E-2   10.70   
  1.061     0.4376E-1   18.09     0.9116E-2   10.70   
  1.081     0.4463E-1   18.10     0.9292E-2   10.70   
  1.101     0.4550E-1   18.11     0.9467E-2   10.70   
  1.121     0.4637E-1   18.12     0.9643E-2   10.71   
  1.141     0.4725E-1   18.13     0.9818E-2   10.71   
  1.161     0.4813E-1   18.13     0.9994E-2   10.71   
  1.181     0.4901E-1   18.14     0.1017E-1   10.71   
  1.201     0.4990E-1   18.15     0.1035E-1   10.71   
  1.221     0.5078E-1   18.16     0.1052E-1   10.72   
  1.241     0.5167E-1   18.17     0.1070E-1   10.72   
  1.261     0.5257E-1   18.19     0.1088E-1   10.72   
  1.281     0.5347E-1   18.20     0.1105E-1   10.72   
  1.301     0.5436E-1   18.21     0.1123E-1   10.73   
  1.321     0.5527E-1   18.22     0.1141E-1   10.73   
  1.341     0.5617E-1   18.23     0.1159E-1   10.73   
  1.361     0.5708E-1   18.24     0.1177E-1   10.73   
  1.381     0.5800E-1   18.25     0.1194E-1   10.73   
  1.401     0.5891E-1   18.26     0.1212E-1   10.74   
  1.421     0.5983E-1   18.28     0.1230E-1   10.74   
  1.441     0.6075E-1   18.29     0.1248E-1   10.74   
  1.461     0.6168E-1   18.30     0.1266E-1   10.74   
  1.481     0.6261E-1   18.31     0.1284E-1   10.75   
  1.502     0.6354E-1   18.32     0.1302E-1   10.75   
  1.522     0.6448E-1   18.34     0.1320E-1   10.75   
  1.542     0.6542E-1   18.35     0.1338E-1   10.75   
  1.562     0.6637E-1   18.36     0.1356E-1   10.76   
  1.582     0.6732E-1   18.38     0.1374E-1   10.76   
  1.602     0.6827E-1   18.39     0.1392E-1   10.76   
  1.622     0.6923E-1   18.40     0.1410E-1   10.77   
  1.642     0.7019E-1   18.42     0.1429E-1   10.77   
  1.662     0.7115E-1   18.43     0.1447E-1   10.77   
  1.682     0.7212E-1   18.45     0.1465E-1   10.77   
  1.702     0.7310E-1   18.46     0.1483E-1   10.78   
  1.722     0.7407E-1   18.48     0.1501E-1   10.78   
  1.742     0.7506E-1   18.49     0.1520E-1   10.78   
  1.762     0.7604E-1   18.51     0.1538E-1   10.79   
  1.782     0.7704E-1   18.52     0.1557E-1   10.79   
  1.802     0.7803E-1   18.54     0.1575E-1   10.79   
  1.822     0.7903E-1   18.55     0.1593E-1   10.80   
  1.842     0.8004E-1   18.57     0.1612E-1   10.80   
  1.862     0.8105E-1   18.58     0.1630E-1   10.80   
  1.882     0.8206E-1   18.60     0.1649E-1   10.81   
  1.902     0.8309E-1   18.62     0.1667E-1   10.81   
  1.922     0.8411E-1   18.63     0.1686E-1   10.81   
  1.942     0.8514E-1   18.65     0.1705E-1   10.82   
  1.962     0.8618E-1   18.67     0.1723E-1   10.82   
  1.982     0.8722E-1   18.69     0.1742E-1   10.82   
  2.002     0.8827E-1   18.70     0.1761E-1   10.83   
  2.022     0.8932E-1   18.72     0.1780E-1   10.83   
  2.042     0.9038E-1   18.74     0.1798E-1   10.83   
  2.062     0.9144E-1   18.76     0.1817E-1   10.84   
  2.082     0.9251E-1   18.78     0.1836E-1   10.84   
  2.102     0.9358E-1   18.79     0.1855E-1   10.84   
  2.122     0.9466E-1   18.81     0.1874E-1   10.85   
   2.14214    0.09575   18.83193    0.01893   10.85160
   2.16216    0.09684   18.85120    0.01912   10.85538
   2.18218    0.09794   18.87077    0.01931   10.85930
   2.20220    0.09905   18.89048    0.01950   10.86308
   2.22222    0.10016   18.91027    0.01969   10.86701
   2.24224    0.10128   18.93058    0.01989   10.87094
   2.26226    0.10240   18.95081    0.02008   10.87502
   2.28228    0.10353   18.97156    0.02027   10.87909
   2.30230    0.10467   18.99239    0.02046   10.88317
   2.32232    0.10582   19.01336    0.02066   10.88724
   2.34234    0.10697   19.03463    0.02085   10.89132
   2.36236    0.10813   19.05620    0.02105   10.89555
   2.38238    0.10929   19.07791    0.02124   10.89977
   2.40240    0.11047   19.09985    0.02144   10.90414
   2.42242    0.11165   19.12216    0.02163   10.90837
   2.44244    0.11283   19.14454    0.02183   10.91274
   2.46246    0.11403   19.16729    0.02203   10.91711
   2.48248    0.11523   19.19027    0.02222   10.92163
   2.50250    0.11644   19.21339    0.02242   10.92600
   2.52252    0.11766   19.23681    0.02262   10.93053
   2.54254    0.11889   19.26053    0.02282   10.93505
   2.56256    0.12012   19.28439    0.02302   10.93972
   2.58258    0.12136   19.30848    0.02322   10.94438
   2.60260    0.12261   19.33293    0.02342   10.94905
   2.62262    0.12387   19.35761    0.02362   10.95365
   2.64264    0.12514   19.38251    0.02382   10.95847
   2.66266    0.12641   19.40779    0.02402   10.96328
   2.68268    0.12770   19.43321    0.02422   10.96810
   2.70270    0.12899   19.45878    0.02442   10.97292
   2.72272    0.13030   19.48471    0.02463   10.97788
   2.74274    0.13161   19.51088    0.02483   10.98277
   2.76276    0.13293   19.53748    0.02503   10.98774
   2.78278    0.13426   19.56417    0.02524   10.99285
   2.80280    0.13560   19.59114    0.02544   10.99782
   2.82282    0.13695   19.61841    0.02565   11.00301
   2.84284    0.13831   19.64584    0.02586   11.00812
   2.86286    0.13967   19.67370    0.02606   11.01338
   2.88288    0.14105   19.70186    0.02627   11.01865
   2.90290    0.14244   19.73018    0.02648   11.02383
   2.92292    0.14384   19.75886    0.02669   11.02909
   2.94294    0.14525   19.78769    0.02690   11.03451
   2.96296    0.14667   19.81696    0.02711   11.03992
   2.98298    0.14810   19.84638    0.02732   11.04540
   3.00300    0.14955   19.87625    0.02753   11.05081
   3.02302    0.15100   19.90627    0.02774   11.05637
   3.04304    0.15246   19.93665    0.02795   11.06200
   3.06306    0.15394   19.96726    0.02816   11.06756
   3.08308    0.15543   19.99824    0.02838   11.07319
   3.10310    0.15693   20.02951    0.02859   11.07890
   3.12312    0.15844   20.06109    0.02880   11.08475
   3.14314    0.15996   20.09295    0.02902   11.09053
   3.16316    0.16149   20.12512    0.02924   11.09639
   3.18318    0.16304   20.15751    0.02945   11.10217
   3.20320    0.16460   20.19019    0.02967   11.10817
   3.22322    0.16617   20.22332    0.02989   11.11410
   3.24324    0.16776   20.25674    0.03010   11.12010
   3.26326    0.16936   20.29046    0.03032   11.12611
   3.28328    0.17097   20.32448    0.03054   11.13218
   3.30330    0.17260   20.35887    0.03076   11.13834
   3.32332    0.17424   20.39363    0.03098   11.14456
   3.34334    0.17589   20.42861    0.03121   11.15079
   3.36336    0.17755   20.46404    0.03143   11.15709
   3.38338    0.17924   20.49968    0.03165   11.16331
   3.40340    0.18093   20.53570    0.03188   11.16976
   3.42342    0.18264   20.57209    0.03210   11.17613
   3.44344    0.18437   20.60878    0.03233   11.18258
   3.46346    0.18611   20.64576    0.03255   11.18896
   3.48348    0.18786   20.68319    0.03278   11.19548
   3.50350    0.18963   20.72106    0.03301   11.20222
   3.52352    0.19142   20.75915    0.03323   11.20874
   3.54354    0.19322   20.79754    0.03346   11.21549
   3.56356    0.19504   20.83637    0.03369   11.22216
   3.58358    0.19688   20.87565    0.03392   11.22898
   3.60360    0.19873   20.91523    0.03415   11.23572
   3.62362    0.20060   20.95518    0.03439   11.24269
   3.64364    0.20248   20.99542    0.03462   11.24951
   3.66366    0.20439   21.03611    0.03485   11.25647
   3.68368    0.20631   21.07724    0.03509   11.26351
   3.70370    0.20825   21.11874    0.03532   11.27048
   3.72372    0.21020   21.16062    0.03556   11.27759
   3.74374    0.21218   21.20286    0.03579   11.28471
   3.76376    0.21417   21.24555    0.03603   11.29205
   3.78378    0.21619   21.28846    0.03627   11.29916
   3.80380    0.21822   21.33204    0.03651   11.30642
   3.82382    0.22027   21.37584    0.03675   11.31384
   3.84384    0.22235   21.42008    0.03699   11.32110
   3.86386    0.22444   21.46470    0.03723   11.32858
   3.88388    0.22655   21.50983    0.03747   11.33614
   3.90390    0.22869   21.55549    0.03772   11.34355
   3.92392    0.23084   21.60144    0.03796   11.35126
   3.94394    0.23302   21.64776    0.03821   11.35882
   3.96396    0.23522   21.69460    0.03845   11.36653
   3.98398    0.23744   21.74181    0.03870   11.37424
   4.00400    0.23968   21.78961    0.03895   11.38194
   4.02402    0.24194   21.83778    0.03920   11.38980
   4.04404    0.24423   21.88647    0.03945   11.39766
   4.06406    0.24655   21.93554    0.03970   11.40551
   4.08408    0.24888   21.98504    0.03995   11.41352
   4.10410    0.25124   22.03507    0.04020   11.42152
   4.12412    0.25363   22.08554    0.04045   11.42967
   4.14414    0.25604   22.13660    0.04071   11.43782
   4.16416    0.25847   22.18796    0.04096   11.44598
   4.18418    0.26094   22.23999    0.04122   11.45413
   4.20420    0.26342   22.29246    0.04148   11.46243
   4.22422    0.26594   22.34530    0.04174   11.47073
   4.24424    0.26848   22.39881    0.04200   11.47918
   4.26426    0.27105   22.45269    0.04226   11.48763
   4.28428    0.27365   22.50724    0.04252   11.49600
   4.30430    0.27627   22.56215    0.04278   11.50460
   4.32432    0.27893   22.61774    0.04304   11.51320
   4.34434    0.28161   22.67377    0.04331   11.52179
   4.36436    0.28432   22.73046    0.04357   11.53054
   4.38438    0.28707   22.78760    0.04384   11.53928
   4.40440    0.28984   22.84512    0.04411   11.54810
   4.42442    0.29265   22.90344    0.04438   11.55700
   4.44444    0.29549   22.96243    0.04465   11.56589
   4.46446    0.29836   23.02180    0.04492   11.57471
   4.48448    0.30126   23.08175    0.04519   11.58375
   4.50450    0.30419   23.14231    0.04546   11.59294
   4.52452    0.30717   23.20337    0.04574   11.60213
   4.54454    0.31017   23.26518    0.04601   11.61125
   4.56456    0.31321   23.32759    0.04629   11.62044
   4.58458    0.31629   23.39051    0.04657   11.62970
   4.60460    0.31940   23.45402    0.04685   11.63904
   4.62462    0.32255   23.51820    0.04713   11.64853
   4.64464    0.32573   23.58312    0.04741   11.65794
   4.66466    0.32896   23.64857    0.04769   11.66742
   4.68468    0.33222   23.71460    0.04798   11.67698
   4.70470    0.33553   23.78137    0.04826   11.68677
   4.72472    0.33887   23.84882    0.04855   11.69633
   4.74474    0.34226   23.91700    0.04883   11.70611
   4.76476    0.34568   23.98570    0.04912   11.71597
   4.78478    0.34915   24.05529    0.04941   11.72575
   4.80480    0.35266   24.12540    0.04970   11.73576
   4.82482    0.35622   24.19640    0.05000   11.74569
   4.84484    0.35982   24.26792    0.05029   11.75569
   4.86486    0.36347   24.34033    0.05059   11.76585
   4.88488    0.36716   24.41326    0.05088   11.77592
   4.90490    0.37090   24.48700    0.05118   11.78623
   4.92492    0.37469   24.56163    0.05148   11.79638
   4.94494    0.37852   24.63700    0.05178   11.80676
   4.96496    0.38241   24.71304    0.05208   11.81721
   4.98498    0.38635   24.78990    0.05238   11.82765
   5.00500    0.39034   24.86749    0.05269   11.83818
   5.02502    0.39438   24.94598    0.05300   11.84878
   5.04504    0.39847   25.02520    0.05330   11.85938
   5.06506    0.40262   25.10532    0.05361   11.87012
   5.08508    0.40683   25.18632    0.05392   11.88087
   5.10510    0.41109   25.26814    0.05423   11.89169
   5.12512    0.41541   25.35078    0.05455   11.90258
   5.14514    0.41978   25.43423    0.05486   11.91348
   5.16516    0.42422   25.51857    0.05518   11.92452
   5.18518    0.42872   25.60387    0.05549   11.93556
   5.20520    0.43328   25.69006    0.05581   11.94675
   5.22522    0.43791   25.77707    0.05613   11.95794
   5.24524    0.44260   25.86519    0.05645   11.96914
   5.26526    0.44735   25.95412    0.05678   11.98047
   5.28528    0.45217   26.04410    0.05710   11.99196
   5.30531    0.45707   26.13489    0.05743   12.00330
   5.32533    0.46203   26.22678    0.05776   12.01494
   5.34535    0.46706   26.31965    0.05809   12.02642
   5.36537    0.47216   26.41355    0.05842   12.03821
   5.38539    0.47734   26.50849    0.05875   12.04984
   5.40541    0.48260   26.60446    0.05909   12.06163
   5.42543    0.48793   26.70140    0.05942   12.07356
   5.44545    0.49334   26.79960    0.05976   12.08542
   5.46547    0.49883   26.89869    0.06010   12.09750
   5.48549    0.50440   26.99896    0.06044   12.10958
   5.50551    0.51006   27.10049    0.06078   12.12166
   5.52553    0.51580   27.20306    0.06113   12.13389
   5.54555    0.52163   27.30675    0.06148   12.14604
   5.56557    0.52754   27.41162    0.06182   12.15842
   5.58559    0.53355   27.51767    0.06217   12.17094
   5.60561    0.53965   27.62491    0.06253   12.18339
   5.62563    0.54585   27.73349    0.06288   12.19592
   5.64565    0.55214   27.84317    0.06323   12.20859
   5.66567    0.55853   27.95420    0.06359   12.22119
   5.68569    0.56502   28.06647    0.06395   12.23401
   5.70571    0.57162   28.18009    0.06431   12.24676
   5.72573    0.57832   28.29504    0.06467   12.25973
   5.74575    0.58513   28.41125    0.06504   12.27262
   5.76577    0.59205   28.52893    0.06540   12.28574
   5.78579    0.59908   28.64796    0.06577   12.29893
   5.80581    0.60623   28.76847    0.06614   12.31205
   5.82583    0.61349   28.89023    0.06651   12.32539
   5.84585    0.62088   29.01370    0.06689   12.33873
   5.86587    0.62838   29.13851    0.06726   12.35215
   5.88589    0.63602   29.26487    0.06764   12.36564
   5.90591    0.64378   29.39264    0.06802   12.37912
   5.92593    0.65167   29.52219    0.06841   12.39284
   5.94595    0.65970   29.65329    0.06879   12.40662
   5.96597    0.66786   29.78603    0.06918   12.42041
   5.98599    0.67617   29.92032    0.06956   12.43434
   6.00601    0.68462   30.05624    0.06995   12.44827
   6.02603    0.69322   30.19387    0.07035   12.46228
   6.04605    0.70197   30.33327    0.07074   12.47651
   6.06607    0.71088   30.47446    0.07114   12.49059
   6.08609    0.71994   30.61735    0.07154   12.50497
   6.10611    0.72917   30.76209    0.07194   12.51920
   6.12613    0.73856   30.90876    0.07234   12.53372
   6.14615    0.74813   31.05728    0.07275   12.54825
   6.16617    0.75786   31.20772    0.07316   12.56277
   6.18619    0.76778   31.36017    0.07357   12.57745
   6.20621    0.77788   31.51462    0.07398   12.59227
   6.22623    0.78817   31.67107    0.07439   12.60709
   6.24625    0.79866   31.82952    0.07481   12.62199
   6.26627    0.80934   31.99020    0.07523   12.63696
   6.28629    0.82022   32.15302    0.07565   12.65208
   6.30631    0.83131   32.31785    0.07608   12.66735
   6.32633    0.84262   32.48497    0.07650   12.68261
   6.34635    0.85414   32.65454    0.07693   12.69796
   6.36637    0.86589   32.82619    0.07736   12.71337
   6.38639    0.87787   33.00058    0.07780   12.72894
   6.40641    0.89009   33.17711    0.07824   12.74457
   6.42643    0.90255   33.35609    0.07868   12.76028
   6.44645    0.91526   33.53759    0.07912   12.77607
