#                                                           
#  __  __   ________   ___ __ __    _______   ______        
# /_/\/_/\ /_______/\ /__//_//_/\ /_______/\ /_____/\       
# \ \ \ \ \\::: _  \ \\::\| \| \ \\::: _  \ \\:::_ \ \      
#  \:\_\ \ \\::(_)  \ \\:.      \ \\::(_)  \/_\:\ \ \ \     
#   \::::_\/ \:: __  \ \\:.\-/\  \ \\::  _  \ \\:\ \ \ \    
#     \::\ \  \:.\ \  \ \\. \  \  \ \\::(_)  \ \\:\_\ \ \   
#      \__\/   \__\/\__\/ \__\/ \__\/ \_______\/ \_____\/   
#                                                           
#                                                           
#        Version 4.3.0 Revision 15624 Hash 7ed12fb          
#                      MPI+SLK Build                        
#                http://www.yambo-code.org                  
#
# EELS @ Q(1)  [q->0 direction]:0.1000E-4  0.000     0.000   
#
#
# - Energies      are  Analyt. E
# - Wavefunctions are Teter 93(XC)
#
# - The Green`s function is Retarded -
# - Using the Length Gauge -
# - [r,Vnl] *is* included -
#
#   BSK|Identifier              :4
#      |Dimension               :49
#      |Bands                   :1 - 50
#      |Exchange           [res]: yes
#      |Correlation        [res]: yes
#      |Kernel`s coupling       : no
#      |Exchange           [cpl]: no
#      |Correlation        [cpl]: no
#      |W interaction is bare   : no
#      |ALDA kernel in R-space  : no
#      |RL vectors    [exchange]:437
#      |RL vectors [correlation]:515
#      |E/h energy range    [ev]:-1.000000 - -1.000000
#      |Coupling range     [o/o]: 100.0000 -  100.0000
#    W |Interaction is diagonal : no
#      |Matrix size             :515
#      |Bands                   :1 - 50
#      |e/h energy range    [ev]:-1.000000 - -1.000000
#      |Poles              [o/o]: 100.0000
#      |RL vectors in the sum   :4945
#      |[r,Vnl] included        : yes
#      |Field direction         :0.1000E-4  0.000000  0.000000
#      |Coulomb Cutoff          :none
#      |xc-Kernel               :none
#   RIM|RL components      [col]:0
#      |Random points      [col]:0
#
#    E/ev[1]      EEL-Im[2]    EEL-Re[3]    EELo-Im[4]   EELo-Re[5]
#
    0.000000    -0.000000    -0.981357    -0.000000    -0.987322
   0.2002E-1    0.3287E-6    -.9814       0.1023E-6    -.9873   
   0.4004E-1    0.6574E-6    -.9814       0.2045E-6    -.9873   
   0.6006E-1    0.9861E-6    -.9814       0.3068E-6    -.9873   
   0.8008E-1    0.1315E-5    -.9814       0.4091E-6    -.9873   
   0.1001       0.1644E-5    -.9814       0.5114E-6    -.9873   
   0.1201       0.1972E-5    -.9814       0.6137E-6    -.9873   
   0.1401       0.2301E-5    -.9814       0.7160E-6    -.9873   
   0.1602       0.2630E-5    -.9814       0.8182E-6    -.9873   
   0.1802       0.2959E-5    -.9814       0.9206E-6    -.9873   
   0.2002       0.3288E-5    -.9814       0.1023E-5    -.9873   
   0.2202       0.3617E-5    -.9814       0.1125E-5    -.9873   
   0.2402       0.3946E-5    -.9814       0.1228E-5    -.9873   
   0.2603       0.4275E-5    -.9814       0.1330E-5    -.9873   
   0.2803       0.4605E-5    -.9814       0.1432E-5    -.9873   
   0.3003       0.4934E-5    -.9813       0.1535E-5    -.9873   
   0.3203       0.5264E-5    -.9813       0.1637E-5    -.9873   
   0.3403       0.5593E-5    -.9813       0.1739E-5    -.9873   
   0.3604       0.5923E-5    -.9813       0.1842E-5    -.9873   
   0.3804       0.6253E-5    -.9813       0.1944E-5    -.9873   
   0.4004       0.6583E-5    -.9813       0.2047E-5    -.9873   
   0.4204       0.6913E-5    -.9813       0.2149E-5    -.9873   
   0.4404       0.7244E-5    -.9813       0.2252E-5    -.9873   
   0.4605       0.7574E-5    -.9813       0.2354E-5    -.9873   
   0.4805       0.7905E-5    -.9813       0.2457E-5    -.9873   
   0.5005       0.8236E-5    -.9813       0.2559E-5    -.9873   
   0.5205       0.8567E-5    -.9813       0.2662E-5    -.9873   
   0.5405       0.8898E-5    -.9813       0.2765E-5    -.9873   
   0.5606       0.9229E-5    -.9813       0.2867E-5    -.9873   
   0.5806       0.9561E-5    -.9813       0.2970E-5    -.9873   
   0.6006       0.9893E-5    -.9813       0.3073E-5    -.9873   
   0.6206       0.1022E-4    -.9813       0.3176E-5    -.9873   
   0.6406       0.1056E-4    -.9813       0.3278E-5    -.9873   
   0.6607       0.1089E-4    -.9813       0.3381E-5    -.9873   
   0.6807       0.1122E-4    -.9813       0.3484E-5    -.9873   
   0.7007       0.1156E-4    -.9813       0.3587E-5    -.9873   
   0.7207       0.1189E-4    -.9813       0.3690E-5    -.9873   
   0.7407       0.1222E-4    -.9813       0.3793E-5    -.9873   
   0.7608       0.1256E-4    -.9813       0.3896E-5    -.9873   
   0.7808       0.1289E-4    -.9813       0.3999E-5    -.9873   
   0.8008       0.1322E-4    -.9813       0.4102E-5    -.9873   
   0.8208       0.1356E-4    -.9813       0.4205E-5    -.9873   
   0.8408       0.1389E-4    -.9813       0.4308E-5    -.9873   
   0.8609       0.1423E-4    -.9813       0.4411E-5    -.9873   
   0.8809       0.1456E-4    -.9813       0.4515E-5    -.9873   
   0.9009       0.1490E-4    -.9813       0.4618E-5    -.9873   
   0.9209       0.1524E-4    -.9813       0.4721E-5    -.9873   
   0.9409       0.1557E-4    -.9813       0.4825E-5    -.9873   
   0.9610       0.1591E-4    -.9813       0.4928E-5    -.9873   
   0.9810       0.1625E-4    -.9813       0.5032E-5    -.9873   
    1.001       0.1659E-4    -.9813       0.5135E-5    -.9873   
    1.021       0.1692E-4    -.9813       0.5239E-5    -.9873   
    1.041       0.1726E-4    -.9813       0.5342E-5    -.9873   
    1.061       0.1760E-4    -.9813       0.5446E-5    -.9873   
    1.081       0.1794E-4    -.9813       0.5550E-5    -.9873   
    1.101       0.1828E-4    -.9813       0.5654E-5    -.9873   
    1.121       0.1862E-4    -.9813       0.5757E-5    -.9873   
    1.141       0.1896E-4    -.9812       0.5861E-5    -.9873   
    1.161       0.1930E-4    -.9812       0.5965E-5    -.9873   
    1.181       0.1964E-4    -.9812       0.6069E-5    -.9873   
    1.201       0.1998E-4    -.9812       0.6174E-5    -.9873   
    1.221       0.2032E-4    -.9812       0.6278E-5    -.9873   
    1.241       0.2067E-4    -.9812       0.6382E-5    -.9873   
    1.261       0.2101E-4    -.9812       0.6486E-5    -.9873   
    1.281       0.2135E-4    -.9812       0.6591E-5    -.9873   
    1.301       0.2170E-4    -.9812       0.6695E-5    -.9873   
    1.321       0.2204E-4    -.9812       0.6800E-5    -.9873   
    1.341       0.2239E-4    -.9812       0.6904E-5    -.9873   
    1.361       0.2273E-4    -.9812       0.7009E-5    -.9873   
    1.381       0.2308E-4    -.9812       0.7114E-5    -.9873   
    1.401       0.2343E-4    -.9812       0.7218E-5    -.9873   
    1.421       0.2377E-4    -.9812       0.7323E-5    -.9873   
    1.441       0.2412E-4    -.9812       0.7428E-5    -.9873   
    1.461       0.2447E-4    -.9812       0.7533E-5    -.9873   
    1.481       0.2482E-4    -.9812       0.7638E-5    -.9873   
    1.502       0.2517E-4    -.9812       0.7743E-5    -.9873   
    1.522       0.2552E-4    -.9812       0.7849E-5    -.9873   
    1.542       0.2587E-4    -.9812       0.7954E-5    -.9873   
    1.562       0.2622E-4    -.9812       0.8059E-5    -.9873   
    1.582       0.2657E-4    -.9811       0.8165E-5    -.9873   
    1.602       0.2692E-4    -.9811       0.8270E-5    -.9873   
    1.622       0.2727E-4    -.9811       0.8376E-5    -.9873   
    1.642       0.2763E-4    -.9811       0.8482E-5    -.9873   
    1.662       0.2798E-4    -.9811       0.8588E-5    -.9873   
    1.682       0.2834E-4    -.9811       0.8694E-5    -.9872   
    1.702       0.2869E-4    -.9811       0.8800E-5    -.9872   
    1.722       0.2905E-4    -.9811       0.8906E-5    -.9872   
    1.742       0.2940E-4    -.9811       0.9012E-5    -.9872   
    1.762       0.2976E-4    -.9811       0.9118E-5    -.9872   
    1.782       0.3012E-4    -.9811       0.9225E-5    -.9872   
    1.802       0.3048E-4    -.9811       0.9331E-5    -.9872   
    1.822       0.3084E-4    -.9811       0.9438E-5    -.9872   
    1.842       0.3120E-4    -.9811       0.9544E-5    -.9872   
    1.862       0.3156E-4    -.9811       0.9651E-5    -.9872   
    1.882       0.3192E-4    -.9811       0.9758E-5    -.9872   
    1.902       0.3228E-4    -.9811       0.9865E-5    -.9872   
    1.922       0.3264E-4    -.9810       0.9972E-5    -.9872   
    1.942       0.3301E-4    -.9810       0.1008E-4    -.9872   
    1.962       0.3337E-4    -.9810       0.1019E-4    -.9872   
    1.982       0.3374E-4    -.9810       0.1029E-4    -.9872   
    2.002       0.3410E-4    -.9810       0.1040E-4    -.9872   
    2.022       0.3447E-4    -.9810       0.1051E-4    -.9872   
    2.042       0.3484E-4    -.9810       0.1062E-4    -.9872   
    2.062       0.3521E-4    -.9810       0.1072E-4    -.9872   
    2.082       0.3558E-4    -.9810       0.1083E-4    -.9872   
    2.102       0.3595E-4    -.9810       0.1094E-4    -.9872   
    2.122       0.3632E-4    -.9810       0.1105E-4    -.9872   
    2.142       0.3669E-4    -.9810       0.1116E-4    -.9872   
    2.162       0.3706E-4    -.9810       0.1127E-4    -.9872   
    2.182       0.3743E-4    -.9810       0.1137E-4    -.9872   
    2.202       0.3781E-4    -.9810       0.1148E-4    -.9872   
    2.222       0.3818E-4    -.9809       0.1159E-4    -.9872   
    2.242       0.3856E-4    -.9809       0.1170E-4    -.9872   
    2.262       0.3894E-4    -.9809       0.1181E-4    -.9872   
    2.282       0.3932E-4    -.9809       0.1192E-4    -.9872   
    2.302       0.3969E-4    -.9809       0.1203E-4    -.9872   
    2.322       0.4007E-4    -.9809       0.1214E-4    -.9872   
    2.342       0.4045E-4    -.9809       0.1225E-4    -.9872   
    2.362       0.4084E-4    -.9809       0.1236E-4    -.9872   
    2.382       0.4122E-4    -.9809       0.1247E-4    -.9872   
    2.402       0.4160E-4    -.9809       0.1258E-4    -.9872   
    2.422       0.4199E-4    -.9809       0.1269E-4    -.9872   
    2.442       0.4237E-4    -.9809       0.1280E-4    -.9872   
    2.462       0.4276E-4    -.9808       0.1291E-4    -.9872   
    2.482       0.4315E-4    -.9808       0.1302E-4    -.9872   
    2.503       0.4354E-4    -.9808       0.1313E-4    -.9872   
    2.523       0.4393E-4    -.9808       0.1324E-4    -.9872   
    2.543       0.4432E-4    -.9808       0.1335E-4    -.9872   
    2.563       0.4471E-4    -.9808       0.1346E-4    -.9872   
    2.583       0.4510E-4    -.9808       0.1357E-4    -.9871   
    2.603       0.4550E-4    -.9808       0.1368E-4    -.9871   
    2.623       0.4589E-4    -.9808       0.1379E-4    -.9871   
    2.643       0.4629E-4    -.9808       0.1390E-4    -.9871   
    2.663       0.4669E-4    -.9808       0.1402E-4    -.9871   
    2.683       0.4708E-4    -.9807       0.1413E-4    -.9871   
    2.703       0.4748E-4    -.9807       0.1424E-4    -.9871   
    2.723       0.4788E-4    -.9807       0.1435E-4    -.9871   
    2.743       0.4829E-4    -.9807       0.1446E-4    -.9871   
    2.763       0.4869E-4    -.9807       0.1458E-4    -.9871   
    2.783       0.4909E-4    -.9807       0.1469E-4    -.9871   
    2.803       0.4950E-4    -.9807       0.1480E-4    -.9871   
    2.823       0.4991E-4    -.9807       0.1492E-4    -.9871   
    2.843       0.5031E-4    -.9807       0.1503E-4    -.9871   
    2.863       0.5072E-4    -.9807       0.1514E-4    -.9871   
    2.883       0.5113E-4    -.9806       0.1525E-4    -.9871   
    2.903       0.5155E-4    -.9806       0.1537E-4    -.9871   
    2.923       0.5196E-4    -.9806       0.1548E-4    -.9871   
    2.943       0.5237E-4    -.9806       0.1560E-4    -.9871   
    2.963       0.5279E-4    -.9806       0.1571E-4    -.9871   
    2.983       0.5321E-4    -.9806       0.1582E-4    -.9871   
    3.003       0.5362E-4    -.9806       0.1594E-4    -.9871   
    3.023       0.5404E-4    -.9806       0.1605E-4    -.9871   
    3.043       0.5446E-4    -.9806       0.1617E-4    -.9871   
    3.063       0.5489E-4    -.9806       0.1628E-4    -.9871   
    3.083       0.5531E-4    -.9805       0.1640E-4    -.9871   
    3.103       0.5574E-4    -.9805       0.1651E-4    -.9871   
    3.123       0.5616E-4    -.9805       0.1663E-4    -.9871   
    3.143       0.5659E-4    -.9805       0.1674E-4    -.9871   
    3.163       0.5702E-4    -.9805       0.1686E-4    -.9871   
    3.183       0.5745E-4    -.9805       0.1698E-4    -.9871   
    3.203       0.5788E-4    -.9805       0.1709E-4    -.9871   
    3.223       0.5832E-4    -.9805       0.1721E-4    -.9871   
    3.243       0.5875E-4    -.9805       0.1733E-4    -.9870   
    3.263       0.5919E-4    -.9804       0.1744E-4    -.9870   
    3.283       0.5963E-4    -.9804       0.1756E-4    -.9870   
    3.303       0.6007E-4    -.9804       0.1768E-4    -.9870   
    3.323       0.6051E-4    -.9804       0.1779E-4    -.9870   
    3.343       0.6095E-4    -.9804       0.1791E-4    -.9870   
    3.363       0.6139E-4    -.9804       0.1803E-4    -.9870   
    3.383       0.6184E-4    -.9804       0.1815E-4    -.9870   
    3.403       0.6229E-4    -.9804       0.1826E-4    -.9870   
    3.423       0.6274E-4    -.9803       0.1838E-4    -.9870   
    3.443       0.6319E-4    -.9803       0.1850E-4    -.9870   
    3.463       0.6364E-4    -.9803       0.1862E-4    -.9870   
    3.483       0.6409E-4    -.9803       0.1874E-4    -.9870   
    3.504       0.6455E-4    -.9803       0.1886E-4    -.9870   
    3.524       0.6501E-4    -.9803       0.1898E-4    -.9870   
    3.544       0.6547E-4    -.9803       0.1910E-4    -.9870   
    3.564       0.6593E-4    -.9803       0.1922E-4    -.9870   
    3.584       0.6639E-4    -.9802       0.1934E-4    -.9870   
    3.604       0.6685E-4    -.9802       0.1946E-4    -.9870   
    3.624       0.6732E-4    -.9802       0.1958E-4    -.9870   
    3.644       0.6779E-4    -.9802       0.1970E-4    -.9870   
    3.664       0.6826E-4    -.9802       0.1982E-4    -.9870   
    3.684       0.6873E-4    -.9802       0.1994E-4    -.9870   
    3.704       0.6920E-4    -.9802       0.2006E-4    -.9870   
    3.724       0.6968E-4    -.9801       0.2018E-4    -.9870   
    3.744       0.7015E-4    -.9801       0.2030E-4    -.9870   
    3.764       0.7063E-4    -.9801       0.2042E-4    -.9869   
    3.784       0.7111E-4    -.9801       0.2055E-4    -.9869   
    3.804       0.7160E-4    -.9801       0.2067E-4    -.9869   
    3.824       0.7208E-4    -.9801       0.2079E-4    -.9869   
    3.844       0.7257E-4    -.9801       0.2091E-4    -.9869   
    3.864       0.7306E-4    -.9800       0.2104E-4    -.9869   
    3.884       0.7355E-4    -.9800       0.2116E-4    -.9869   
    3.904       0.7404E-4    -.9800       0.2128E-4    -.9869   
    3.924       0.7453E-4    -.9800       0.2141E-4    -.9869   
    3.944       0.7503E-4    -.9800       0.2153E-4    -.9869   
    3.964       0.7553E-4    -.9800       0.2166E-4    -.9869   
    3.984       0.7603E-4    -.9800       0.2178E-4    -.9869   
    4.004       0.7653E-4    -.9799       0.2191E-4    -.9869   
    4.024       0.7704E-4    -.9799       0.2203E-4    -.9869   
    4.044       0.7754E-4    -.9799       0.2216E-4    -.9869   
    4.064       0.7805E-4    -.9799       0.2228E-4    -.9869   
    4.084       0.7857E-4    -.9799       0.2241E-4    -.9869   
    4.104       0.7908E-4    -.9799       0.2253E-4    -.9869   
    4.124       0.7959E-4    -.9798       0.2266E-4    -.9869   
    4.144       0.8011E-4    -.9798       0.2279E-4    -.9869   
    4.164       0.8063E-4    -.9798       0.2291E-4    -.9869   
    4.184       0.8115E-4    -.9798       0.2304E-4    -.9869   
    4.204       0.8168E-4    -.9798       0.2317E-4    -.9869   
    4.224       0.8221E-4    -.9798       0.2329E-4    -.9868   
    4.244       0.8274E-4    -.9797       0.2342E-4    -.9868   
    4.264       0.8327E-4    -.9797       0.2355E-4    -.9868   
    4.284       0.8380E-4    -.9797       0.2368E-4    -.9868   
    4.304       0.8434E-4    -.9797       0.2381E-4    -.9868   
    4.324       0.8488E-4    -.9797       0.2394E-4    -.9868   
    4.344       0.8542E-4    -.9797       0.2406E-4    -.9868   
    4.364       0.8596E-4    -.9796       0.2419E-4    -.9868   
    4.384       0.8651E-4    -.9796       0.2432E-4    -.9868   
    4.404       0.8706E-4    -.9796       0.2445E-4    -.9868   
    4.424       0.8761E-4    -.9796       0.2458E-4    -.9868   
    4.444       0.8816E-4    -.9796       0.2471E-4    -.9868   
    4.464       0.8872E-4    -.9796       0.2485E-4    -.9868   
    4.484       0.8928E-4    -.9795       0.2498E-4    -.9868   
    4.505       0.8984E-4    -.9795       0.2511E-4    -.9868   
    4.525       0.9040E-4    -.9795       0.2524E-4    -.9868   
    4.545       0.9097E-4    -.9795       0.2537E-4    -.9868   
    4.565       0.9154E-4    -.9795       0.2550E-4    -.9868   
    4.585       0.9211E-4    -.9794       0.2564E-4    -.9868   
    4.605       0.9269E-4    -.9794       0.2577E-4    -.9868   
    4.625       0.9327E-4    -.9794       0.2590E-4    -.9868   
    4.645       0.9385E-4    -.9794       0.2604E-4    -.9867   
    4.665       0.9443E-4    -.9794       0.2617E-4    -.9867   
    4.685       0.9502E-4    -.9794       0.2630E-4    -.9867   
    4.705       0.9561E-4    -.9793       0.2644E-4    -.9867   
    4.725       0.9620E-4    -.9793       0.2657E-4    -.9867   
    4.745       0.9679E-4    -.9793       0.2671E-4    -.9867   
    4.765       0.9739E-4    -.9793       0.2684E-4    -.9867   
    4.785       0.9799E-4    -.9793       0.2698E-4    -.9867   
    4.805       0.9860E-4    -.9792       0.2711E-4    -.9867   
    4.825       0.9920E-4    -.9792       0.2725E-4    -.9867   
    4.845       0.9981E-4    -.9792       0.2739E-4    -.9867   
    4.865       0.1004E-3    -.9792       0.2752E-4    -.9867   
    4.885       0.1010E-3    -.9792       0.2766E-4    -.9867   
    4.905       0.1017E-3    -.9791       0.2780E-4    -.9867   
    4.925       0.1023E-3    -.9791       0.2794E-4    -.9867   
    4.945       0.1029E-3    -.9791       0.2808E-4    -.9867   
    4.965       0.1035E-3    -.9791       0.2821E-4    -.9867   
    4.985       0.1042E-3    -.9791       0.2835E-4    -.9867   
    5.005       0.1048E-3    -.9790       0.2849E-4    -.9866   
    5.025       0.1054E-3    -.9790       0.2863E-4    -.9866   
    5.045       0.1061E-3    -.9790       0.2877E-4    -.9866   
    5.065       0.1067E-3    -.9790       0.2891E-4    -.9866   
    5.085       0.1074E-3    -.9790       0.2905E-4    -.9866   
    5.105       0.1080E-3    -.9789       0.2919E-4    -.9866   
    5.125       0.1087E-3    -.9789       0.2933E-4    -.9866   
    5.145       0.1093E-3    -.9789       0.2948E-4    -.9866   
    5.165       0.1100E-3    -.9789       0.2962E-4    -.9866   
    5.185       0.1107E-3    -.9788       0.2976E-4    -.9866   
    5.205       0.1113E-3    -.9788       0.2990E-4    -.9866   
    5.225       0.1120E-3    -.9788       0.3005E-4    -.9866   
    5.245       0.1127E-3    -.9788       0.3019E-4    -.9866   
    5.265       0.1134E-3    -.9788       0.3033E-4    -.9866   
    5.285       0.1141E-3    -.9787       0.3048E-4    -.9866   
    5.305       0.1147E-3    -.9787       0.3062E-4    -.9866   
    5.325       0.1154E-3    -.9787       0.3077E-4    -.9866   
    5.345       0.1161E-3    -.9787       0.3091E-4    -.9865   
    5.365       0.1168E-3    -.9786       0.3106E-4    -.9865   
    5.385       0.1175E-3    -.9786       0.3120E-4    -.9865   
    5.405       0.1182E-3    -.9786       0.3135E-4    -.9865   
    5.425       0.1190E-3    -.9786       0.3150E-4    -.9865   
    5.445       0.1197E-3    -.9785       0.3164E-4    -.9865   
    5.465       0.1204E-3    -.9785       0.3179E-4    -.9865   
