#                                                           
#  __  __   ________   ___ __ __    _______   ______        
# /_/\/_/\ /_______/\ /__//_//_/\ /_______/\ /_____/\       
# \ \ \ \ \\::: _  \ \\::\| \| \ \\::: _  \ \\:::_ \ \      
#  \:\_\ \ \\::(_)  \ \\:.      \ \\::(_)  \/_\:\ \ \ \     
#   \::::_\/ \:: __  \ \\:.\-/\  \ \\::  _  \ \\:\ \ \ \    
#     \::\ \  \:.\ \  \ \\. \  \  \ \\::(_)  \ \\:\_\ \ \   
#      \__\/   \__\/\__\/ \__\/ \__\/ \_______\/ \_____\/   
#                                                           
#                                                           
#        Version 4.3.0 Revision 15624 Hash 7ed12fb          
#                      MPI+SLK Build                        
#                http://www.yambo-code.org                  
#
# Joint density of states @ Q(1) [q->0 direction] :0.1000E-4  0.000     0.000   
#
# - Energies      are  Analyt. E
# - The Green`s function is Retarded -
#
#   BSK|Identifier              :4
#      |Dimension               :49
#      |Bands                   :1 - 50
#      |Exchange           [res]: yes
#      |Correlation        [res]: yes
#      |Kernel`s coupling       : no
#      |Exchange           [cpl]: no
#      |Correlation        [cpl]: no
#      |W interaction is bare   : no
#      |ALDA kernel in R-space  : no
#      |RL vectors    [exchange]:437
#      |RL vectors [correlation]:515
#      |E/h energy range    [ev]:-1.000000 - -1.000000
#      |Coupling range     [o/o]: 100.0000 -  100.0000
#    W |Interaction is diagonal : no
#      |Matrix size             :515
#      |Bands                   :1 - 50
#      |e/h energy range    [ev]:-1.000000 - -1.000000
#      |Poles              [o/o]: 100.0000
#      |RL vectors in the sum   :4945
#      |[r,Vnl] included        : yes
#      |Field direction         :0.1000E-4  0.000000  0.000000
#      |Coulomb Cutoff          :none
#      |xc-Kernel               :none
#   RIM|RL components      [col]:0
#      |Random points      [col]:0
#
#    E/ev[1]      jdos-Im[2]   jdos-Re[3]   jdoso-Im[4]  jdoso-Re[5]  jdos`-Im[6]  jdos`-Re[7]
#
    0.000000     0.000000     0.936081     0.000000     0.771649
   0.2002E-1    0.9239E-5    0.9361       0.4948E-5    0.7716   
   0.4004E-1    0.1848E-4    0.9361       0.9896E-5    0.7717   
   0.6006E-1    0.2772E-4    0.9361       0.1484E-4    0.7717   
   0.8008E-1    0.3696E-4    0.9361       0.1979E-4    0.7717   
   0.1001       0.4620E-4    0.9361       0.2474E-4    0.7717   
   0.1201       0.5544E-4    0.9361       0.2969E-4    0.7717   
   0.1401       0.6468E-4    0.9361       0.3464E-4    0.7717   
   0.1602       0.7393E-4    0.9361       0.3959E-4    0.7717   
   0.1802       0.8317E-4    0.9362       0.4454E-4    0.7717   
   0.2002       0.9242E-4    0.9362       0.4949E-4    0.7717   
   0.2202       0.1017E-3    0.9362       0.5444E-4    0.7717   
   0.2402       0.1109E-3    0.9362       0.5939E-4    0.7717   
   0.2603       0.1202E-3    0.9362       0.6434E-4    0.7717   
   0.2803       0.1294E-3    0.9363       0.6929E-4    0.7717   
   0.3003       0.1387E-3    0.9363       0.7425E-4    0.7718   
   0.3203       0.1479E-3    0.9363       0.7920E-4    0.7718   
   0.3403       0.1572E-3    0.9363       0.8415E-4    0.7718   
   0.3604       0.1664E-3    0.9364       0.8911E-4    0.7718   
   0.3804       0.1757E-3    0.9364       0.9406E-4    0.7718   
   0.4004       0.1850E-3    0.9365       0.9902E-4    0.7718   
   0.4204       0.1942E-3    0.9365       0.1040E-3    0.7719   
   0.4404       0.2035E-3    0.9365       0.1089E-3    0.7719   
   0.4605       0.2128E-3    0.9366       0.1139E-3    0.7719   
   0.4805       0.2220E-3    0.9366       0.1189E-3    0.7719   
   0.5005       0.2313E-3    0.9367       0.1238E-3    0.7720   
   0.5205       0.2406E-3    0.9367       0.1288E-3    0.7720   
   0.5405       0.2499E-3    0.9368       0.1337E-3    0.7720   
   0.5606       0.2592E-3    0.9368       0.1387E-3    0.7720   
   0.5806       0.2685E-3    0.9369       0.1437E-3    0.7721   
   0.6006       0.2778E-3    0.9369       0.1486E-3    0.7721   
   0.6206       0.2871E-3    0.9370       0.1536E-3    0.7721   
   0.6406       0.2964E-3    0.9370       0.1586E-3    0.7722   
   0.6607       0.3057E-3    0.9371       0.1635E-3    0.7722   
   0.6807       0.3150E-3    0.9372       0.1685E-3    0.7722   
   0.7007       0.3243E-3    0.9372       0.1735E-3    0.7723   
   0.7207       0.3336E-3    0.9373       0.1785E-3    0.7723   
   0.7407       0.3429E-3    0.9373       0.1834E-3    0.7723   
   0.7608       0.3523E-3    0.9374       0.1884E-3    0.7724   
   0.7808       0.3616E-3    0.9375       0.1934E-3    0.7724   
   0.8008       0.3709E-3    0.9376       0.1984E-3    0.7724   
   0.8208       0.3803E-3    0.9376       0.2034E-3    0.7725   
   0.8408       0.3896E-3    0.9377       0.2083E-3    0.7725   
   0.8609       0.3990E-3    0.9378       0.2133E-3    0.7726   
   0.8809       0.4083E-3    0.9379       0.2183E-3    0.7726   
   0.9009       0.4177E-3    0.9380       0.2233E-3    0.7727   
   0.9209       0.4271E-3    0.9380       0.2283E-3    0.7727   
   0.9409       0.4365E-3    0.9381       0.2333E-3    0.7727   
   0.9610       0.4458E-3    0.9382       0.2383E-3    0.7728   
   0.9810       0.4552E-3    0.9383       0.2433E-3    0.7728   
    1.001       0.4646E-3    0.9384       0.2483E-3    0.7729   
    1.021       0.4740E-3    0.9385       0.2533E-3    0.7729   
    1.041       0.4834E-3    0.9386       0.2583E-3    0.7730   
    1.061       0.4929E-3    0.9387       0.2633E-3    0.7730   
    1.081       0.5023E-3    0.9388       0.2683E-3    0.7731   
    1.101       0.5117E-3    0.9389       0.2733E-3    0.7732   
    1.121       0.5211E-3    0.9390       0.2783E-3    0.7732   
    1.141       0.5306E-3    0.9391       0.2833E-3    0.7733   
    1.161       0.5400E-3    0.9392       0.2883E-3    0.7733   
    1.181       0.5495E-3    0.9393       0.2934E-3    0.7734   
    1.201       0.5590E-3    0.9394       0.2984E-3    0.7734   
    1.221       0.5684E-3    0.9395       0.3034E-3    0.7735   
    1.241       0.5779E-3    0.9397       0.3084E-3    0.7736   
    1.261       0.5874E-3    0.9398       0.3135E-3    0.7736   
    1.281       0.5969E-3    0.9399       0.3185E-3    0.7737   
    1.301       0.6064E-3    0.9400       0.3235E-3    0.7737   
    1.321       0.6159E-3    0.9401       0.3286E-3    0.7738   
    1.341       0.6254E-3    0.9403       0.3336E-3    0.7739   
    1.361       0.6350E-3    0.9404       0.3386E-3    0.7739   
    1.381       0.6445E-3    0.9405       0.3437E-3    0.7740   
    1.401       0.6541E-3    0.9406       0.3487E-3    0.7741   
    1.421       0.6636E-3    0.9408       0.3538E-3    0.7742   
    1.441       0.6732E-3    0.9409       0.3588E-3    0.7742   
    1.461       0.6828E-3    0.9410       0.3639E-3    0.7743   
    1.481       0.6924E-3    0.9412       0.3690E-3    0.7744   
    1.502       0.7020E-3    0.9413       0.3740E-3    0.7744   
    1.522       0.7116E-3    0.9415       0.3791E-3    0.7745   
    1.542       0.7212E-3    0.9416       0.3842E-3    0.7746   
    1.562       0.7308E-3    0.9417       0.3892E-3    0.7747   
    1.582       0.7405E-3    0.9419       0.3943E-3    0.7748   
    1.602       0.7501E-3    0.9420       0.3994E-3    0.7748   
    1.622       0.7598E-3    0.9422       0.4045E-3    0.7749   
    1.642       0.7694E-3    0.9423       0.4096E-3    0.7750   
    1.662       0.7791E-3    0.9425       0.4147E-3    0.7751   
    1.682       0.7888E-3    0.9427       0.4198E-3    0.7752   
    1.702       0.7985E-3    0.9428       0.4248E-3    0.7752   
    1.722       0.8082E-3    0.9430       0.4300E-3    0.7753   
    1.742       0.8179E-3    0.9431       0.4351E-3    0.7754   
    1.762       0.8277E-3    0.9433       0.4402E-3    0.7755   
    1.782       0.8374E-3    0.9435       0.4453E-3    0.7756   
    1.802       0.8472E-3    0.9436       0.4504E-3    0.7757   
    1.822       0.8570E-3    0.9438       0.4555E-3    0.7758   
    1.842       0.8667E-3    0.9440       0.4606E-3    0.7759   
    1.862       0.8765E-3    0.9442       0.4658E-3    0.7760   
    1.882       0.8864E-3    0.9443       0.4709E-3    0.7761   
    1.902       0.8962E-3    0.9445       0.4760E-3    0.7761   
    1.922       0.9060E-3    0.9447       0.4812E-3    0.7762   
    1.942       0.9159E-3    0.9449       0.4863E-3    0.7763   
    1.962       0.9257E-3    0.9451       0.4915E-3    0.7764   
    1.982       0.9356E-3    0.9452       0.4966E-3    0.7765   
    2.002       0.9455E-3    0.9454       0.5018E-3    0.7766   
    2.022       0.9554E-3    0.9456       0.5069E-3    0.7767   
    2.042       0.9653E-3    0.9458       0.5121E-3    0.7768   
    2.062       0.9752E-3    0.9460       0.5173E-3    0.7769   
    2.082       0.9852E-3    0.9462       0.5224E-3    0.7770   
    2.102       0.9951E-3    0.9464       0.5276E-3    0.7772   
    2.122       0.1005E-2    0.9466       0.5328E-3    0.7773   
    2.142       0.1015E-2    0.9468       0.5380E-3    0.7774   
    2.162       0.1025E-2    0.9470       0.5432E-3    0.7775   
    2.182       0.1035E-2    0.9472       0.5484E-3    0.7776   
    2.202       0.1045E-2    0.9474       0.5536E-3    0.7777   
    2.222       0.1055E-2    0.9476       0.5588E-3    0.7778   
    2.242       0.1065E-2    0.9479       0.5640E-3    0.7779   
    2.262       0.1075E-2    0.9481       0.5692E-3    0.7780   
    2.282       0.1085E-2    0.9483       0.5744E-3    0.7781   
    2.302       0.1096E-2    0.9485       0.5796E-3    0.7783   
    2.322       0.1106E-2    0.9487       0.5849E-3    0.7784   
    2.342       0.1116E-2    0.9489       0.5901E-3    0.7785   
    2.362       0.1126E-2    0.9492       0.5954E-3    0.7786   
    2.382       0.1136E-2    0.9494       0.6006E-3    0.7787   
    2.402       0.1146E-2    0.9496       0.6058E-3    0.7789   
    2.422       0.1156E-2    0.9499       0.6111E-3    0.7790   
    2.442       0.1167E-2    0.9501       0.6164E-3    0.7791   
    2.462       0.1177E-2    0.9503       0.6216E-3    0.7792   
    2.482       0.1187E-2    0.9506       0.6269E-3    0.7793   
    2.503       0.1197E-2    0.9508       0.6322E-3    0.7795   
    2.523       0.1208E-2    0.9510       0.6375E-3    0.7796   
    2.543       0.1218E-2    0.9513       0.6428E-3    0.7797   
    2.563       0.1228E-2    0.9515       0.6480E-3    0.7799   
    2.583       0.1239E-2    0.9518       0.6533E-3    0.7800   
    2.603       0.1249E-2    0.9520       0.6587E-3    0.7801   
    2.623       0.1259E-2    0.9523       0.6640E-3    0.7803   
    2.643       0.1270E-2    0.9525       0.6693E-3    0.7804   
    2.663       0.1280E-2    0.9528       0.6746E-3    0.7805   
    2.683       0.1291E-2    0.9530       0.6799E-3    0.7807   
    2.703       0.1301E-2    0.9533       0.6853E-3    0.7808   
    2.723       0.1312E-2    0.9536       0.6906E-3    0.7809   
    2.743       0.1322E-2    0.9538       0.6959E-3    0.7811   
    2.763       0.1333E-2    0.9541       0.7013E-3    0.7812   
    2.783       0.1343E-2    0.9544       0.7067E-3    0.7813   
    2.803       0.1354E-2    0.9546       0.7120E-3    0.7815   
    2.823       0.1364E-2    0.9549       0.7174E-3    0.7816   
    2.843       0.1375E-2    0.9552       0.7228E-3    0.7818   
    2.863       0.1386E-2    0.9554       0.7282E-3    0.7819   
    2.883       0.1396E-2    0.9557       0.7335E-3    0.7821   
    2.903       0.1407E-2    0.9560       0.7389E-3    0.7822   
    2.923       0.1418E-2    0.9563       0.7443E-3    0.7824   
    2.943       0.1428E-2    0.9566       0.7497E-3    0.7825   
    2.963       0.1439E-2    0.9569       0.7552E-3    0.7827   
    2.983       0.1450E-2    0.9571       0.7606E-3    0.7828   
    3.003       0.1460E-2    0.9574       0.7660E-3    0.7830   
    3.023       0.1471E-2    0.9577       0.7715E-3    0.7831   
    3.043       0.1482E-2    0.9580       0.7769E-3    0.7833   
    3.063       0.1493E-2    0.9583       0.7823E-3    0.7834   
    3.083       0.1504E-2    0.9586       0.7878E-3    0.7836   
    3.103       0.1515E-2    0.9589       0.7933E-3    0.7838   
    3.123       0.1526E-2    0.9592       0.7987E-3    0.7839   
    3.143       0.1536E-2    0.9595       0.8042E-3    0.7841   
    3.163       0.1547E-2    0.9598       0.8097E-3    0.7842   
    3.183       0.1558E-2    0.9602       0.8152E-3    0.7844   
    3.203       0.1569E-2    0.9605       0.8207E-3    0.7846   
    3.223       0.1580E-2    0.9608       0.8262E-3    0.7847   
    3.243       0.1591E-2    0.9611       0.8317E-3    0.7849   
    3.263       0.1602E-2    0.9614       0.8372E-3    0.7851   
    3.283       0.1614E-2    0.9617       0.8427E-3    0.7852   
    3.303       0.1625E-2    0.9621       0.8483E-3    0.7854   
    3.323       0.1636E-2    0.9624       0.8538E-3    0.7856   
    3.343       0.1647E-2    0.9627       0.8594E-3    0.7857   
    3.363       0.1658E-2    0.9631       0.8649E-3    0.7859   
    3.383       0.1669E-2    0.9634       0.8705E-3    0.7861   
    3.403       0.1681E-2    0.9637       0.8761E-3    0.7863   
    3.423       0.1692E-2    0.9641       0.8817E-3    0.7864   
    3.443       0.1703E-2    0.9644       0.8872E-3    0.7866   
    3.463       0.1715E-2    0.9647       0.8928E-3    0.7868   
    3.483       0.1726E-2    0.9651       0.8984E-3    0.7870   
    3.504       0.1737E-2    0.9654       0.9041E-3    0.7871   
    3.524       0.1749E-2    0.9658       0.9097E-3    0.7873   
    3.544       0.1760E-2    0.9661       0.9153E-3    0.7875   
    3.564       0.1772E-2    0.9665       0.9209E-3    0.7877   
    3.584       0.1783E-2    0.9668       0.9266E-3    0.7879   
    3.604       0.1795E-2    0.9672       0.9322E-3    0.7881   
    3.624       0.1806E-2    0.9676       0.9379E-3    0.7883   
    3.644       0.1818E-2    0.9679       0.9436E-3    0.7884   
    3.664       0.1829E-2    0.9683       0.9493E-3    0.7886   
    3.684       0.1841E-2    0.9687       0.9549E-3    0.7888   
    3.704       0.1853E-2    0.9690       0.9606E-3    0.7890   
    3.724       0.1864E-2    0.9694       0.9664E-3    0.7892   
    3.744       0.1876E-2    0.9698       0.9721E-3    0.7894   
    3.764       0.1888E-2    0.9701       0.9778E-3    0.7896   
    3.784       0.1900E-2    0.9705       0.9835E-3    0.7898   
    3.804       0.1911E-2    0.9709       0.9893E-3    0.7900   
    3.824       0.1923E-2    0.9713       0.9950E-3    0.7902   
    3.844       0.1935E-2    0.9717       0.1001E-2    0.7904   
    3.864       0.1947E-2    0.9721       0.1007E-2    0.7906   
    3.884       0.1959E-2    0.9725       0.1012E-2    0.7908   
    3.904       0.1971E-2    0.9729       0.1018E-2    0.7910   
    3.924       0.1983E-2    0.9732       0.1024E-2    0.7912   
    3.944       0.1995E-2    0.9736       0.1030E-2    0.7914   
    3.964       0.2007E-2    0.9740       0.1036E-2    0.7916   
    3.984       0.2019E-2    0.9745       0.1041E-2    0.7918   
    4.004       0.2031E-2    0.9749       0.1047E-2    0.7920   
    4.024       0.2043E-2    0.9753       0.1053E-2    0.7922   
    4.044       0.2056E-2    0.9757       0.1059E-2    0.7924   
    4.064       0.2068E-2    0.9761       0.1065E-2    0.7927   
    4.084       0.2080E-2    0.9765       0.1071E-2    0.7929   
    4.104       0.2092E-2    0.9769       0.1076E-2    0.7931   
    4.124       0.2105E-2    0.9773       0.1082E-2    0.7933   
    4.144       0.2117E-2    0.9778       0.1088E-2    0.7935   
    4.164       0.2129E-2    0.9782       0.1094E-2    0.7937   
    4.184       0.2142E-2    0.9786       0.1100E-2    0.7940   
    4.204       0.2154E-2    0.9790       0.1106E-2    0.7942   
    4.224       0.2167E-2    0.9795       0.1112E-2    0.7944   
    4.244       0.2179E-2    0.9799       0.1118E-2    0.7946   
    4.264       0.2192E-2    0.9803       0.1124E-2    0.7949   
    4.284       0.2205E-2    0.9808       0.1130E-2    0.7951   
    4.304       0.2217E-2    0.9812       0.1136E-2    0.7953   
    4.324       0.2230E-2    0.9817       0.1142E-2    0.7955   
    4.344       0.2243E-2    0.9821       0.1148E-2    0.7958   
    4.364       0.2255E-2    0.9826       0.1154E-2    0.7960   
    4.384       0.2268E-2    0.9830       0.1160E-2    0.7962   
    4.404       0.2281E-2    0.9835       0.1166E-2    0.7965   
    4.424       0.2294E-2    0.9839       0.1172E-2    0.7967   
    4.444       0.2307E-2    0.9844       0.1178E-2    0.7969   
    4.464       0.2320E-2    0.9849       0.1184E-2    0.7972   
    4.484       0.2333E-2    0.9853       0.1190E-2    0.7974   
    4.505       0.2346E-2    0.9858       0.1196E-2    0.7976   
    4.525       0.2359E-2    0.9863       0.1202E-2    0.7979   
    4.545       0.2372E-2    0.9867       0.1209E-2    0.7981   
    4.565       0.2385E-2    0.9872       0.1215E-2    0.7984   
    4.585       0.2398E-2    0.9877       0.1221E-2    0.7986   
    4.605       0.2412E-2    0.9882       0.1227E-2    0.7989   
    4.625       0.2425E-2    0.9887       0.1233E-2    0.7991   
    4.645       0.2438E-2    0.9891       0.1239E-2    0.7993   
    4.665       0.2452E-2    0.9896       0.1245E-2    0.7996   
    4.685       0.2465E-2    0.9901       0.1252E-2    0.7998   
    4.705       0.2479E-2    0.9906       0.1258E-2    0.8001   
    4.725       0.2492E-2    0.9911       0.1264E-2    0.8003   
    4.745       0.2506E-2    0.9916       0.1270E-2    0.8006   
    4.765       0.2519E-2    0.9921       0.1277E-2    0.8009   
    4.785       0.2533E-2    0.9926       0.1283E-2    0.8011   
    4.805       0.2547E-2    0.9931       0.1289E-2    0.8014   
    4.825       0.2560E-2    0.9937       0.1295E-2    0.8016   
    4.845       0.2574E-2    0.9942       0.1302E-2    0.8019   
    4.865       0.2588E-2    0.9947       0.1308E-2    0.8021   
    4.885       0.2602E-2    0.9952       0.1314E-2    0.8024   
    4.905       0.2616E-2    0.9957       0.1321E-2    0.8027   
    4.925       0.2630E-2    0.9962       0.1327E-2    0.8029   
    4.945       0.2644E-2    0.9968       0.1333E-2    0.8032   
    4.965       0.2658E-2    0.9973       0.1340E-2    0.8035   
    4.985       0.2672E-2    0.9978       0.1346E-2    0.8037   
    5.005       0.2686E-2    0.9984       0.1352E-2    0.8040   
    5.025       0.2700E-2    0.9989       0.1359E-2    0.8043   
    5.045       0.2714E-2    0.9995       0.1365E-2    0.8046   
    5.065       0.2729E-2     1.000       0.1372E-2    0.8048   
    5.085       0.2743E-2     1.001       0.1378E-2    0.8051   
    5.105       0.2757E-2     1.001       0.1385E-2    0.8054   
    5.125       0.2772E-2     1.002       0.1391E-2    0.8057   
    5.145       0.2786E-2     1.002       0.1398E-2    0.8059   
    5.165       0.2801E-2     1.003       0.1404E-2    0.8062   
    5.185       0.2815E-2     1.003       0.1411E-2    0.8065   
    5.205       0.2830E-2     1.004       0.1417E-2    0.8068   
    5.225       0.2845E-2     1.004       0.1424E-2    0.8071   
    5.245       0.2860E-2     1.005       0.1430E-2    0.8074   
    5.265       0.2874E-2     1.006       0.1437E-2    0.8076   
    5.285       0.2889E-2     1.006       0.1443E-2    0.8079   
    5.305       0.2904E-2     1.007       0.1450E-2    0.8082   
    5.325       0.2919E-2     1.007       0.1457E-2    0.8085   
    5.345       0.2934E-2     1.008       0.1463E-2    0.8088   
    5.365       0.2949E-2     1.009       0.1470E-2    0.8091   
    5.385       0.2964E-2     1.009       0.1477E-2    0.8094   
    5.405       0.2980E-2     1.010       0.1483E-2    0.8097   
    5.425       0.2995E-2     1.010       0.1490E-2    0.8100   
    5.445       0.3010E-2     1.011       0.1497E-2    0.8103   
    5.465       0.3025E-2     1.012       0.1503E-2    0.8106   
    5.485       0.3041E-2     1.012       0.1510E-2    0.8109   
