#                                                           
#  __  __   ________   ___ __ __    _______   ______        
# /_/\/_/\ /_______/\ /__//_//_/\ /_______/\ /_____/\       
# \ \ \ \ \\::: _  \ \\::\| \| \ \\::: _  \ \\:::_ \ \      
#  \:\_\ \ \\::(_)  \ \\:.      \ \\::(_)  \/_\:\ \ \ \     
#   \::::_\/ \:: __  \ \\:.\-/\  \ \\::  _  \ \\:\ \ \ \    
#     \::\ \  \:.\ \  \ \\. \  \  \ \\::(_)  \ \\:\_\ \ \   
#      \__\/   \__\/\__\/ \__\/ \__\/ \_______\/ \_____\/   
#                                                           
#                                                           
#        Version 4.3.0 Revision 15624 Hash 7ed12fb          
#                      MPI+SLK Build                        
#                http://www.yambo-code.org                  
#
# Polarizability ( -<<X>> ) [volume @ Q(1) [q->0 direction]0.1000E-4  0.000     0.000   
#
#
# - Energies      are  Analyt. E
# - Wavefunctions are Teter 93(XC)
#
# - The Green`s function is Retarded -
# - Using the Length Gauge -
# - [r,Vnl] *is* included -
#
#   BSK|Identifier              :4
#      |Dimension               :49
#      |Bands                   :1 - 50
#      |Exchange           [res]: yes
#      |Correlation        [res]: yes
#      |Kernel`s coupling       : no
#      |Exchange           [cpl]: no
#      |Correlation        [cpl]: no
#      |W interaction is bare   : no
#      |ALDA kernel in R-space  : no
#      |RL vectors    [exchange]:437
#      |RL vectors [correlation]:515
#      |E/h energy range    [ev]:-1.000000 - -1.000000
#      |Coupling range     [o/o]: 100.0000 -  100.0000
#    W |Interaction is diagonal : no
#      |Matrix size             :515
#      |Bands                   :1 - 50
#      |e/h energy range    [ev]:-1.000000 - -1.000000
#      |Poles              [o/o]: 100.0000
#      |RL vectors in the sum   :4945
#      |[r,Vnl] included        : yes
#      |Field direction         :0.1000E-4  0.000000  0.000000
#      |Coulomb Cutoff          :none
#      |xc-Kernel               :none
#   RIM|RL components      [col]:0
#      |Random points      [col]:0
#
#    E/ev[1]      ALPHA-Im[2]  ALPHA-Re[3]  ALPHAo-Im[4] ALPHAo-Re[5]
#
    0.000000     0.000000     5.006998     0.000000     3.405004
   0.2002E-1    0.8827E-4     5.007       0.2747E-4     3.405   
   0.4004E-1    0.1766E-3     5.007       0.5493E-4     3.405   
   0.6006E-1    0.2648E-3     5.007       0.8240E-4     3.405   
   0.8008E-1    0.3531E-3     5.007       0.1099E-3     3.405   
   0.1001       0.4414E-3     5.007       0.1373E-3     3.405   
   0.1201       0.5297E-3     5.007       0.1648E-3     3.405   
   0.1401       0.6180E-3     5.007       0.1923E-3     3.405   
   0.1602       0.7064E-3     5.008       0.2198E-3     3.405   
   0.1802       0.7947E-3     5.008       0.2472E-3     3.405   
   0.2002       0.8831E-3     5.008       0.2747E-3     3.405   
   0.2202       0.9715E-3     5.008       0.3022E-3     3.405   
   0.2402       0.1060E-2     5.008       0.3297E-3     3.405   
   0.2603       0.1148E-2     5.008       0.3572E-3     3.405   
   0.2803       0.1237E-2     5.009       0.3847E-3     3.406   
   0.3003       0.1325E-2     5.009       0.4122E-3     3.406   
   0.3203       0.1414E-2     5.009       0.4397E-3     3.406   
   0.3403       0.1502E-2     5.010       0.4672E-3     3.406   
   0.3604       0.1591E-2     5.010       0.4947E-3     3.406   
   0.3804       0.1679E-2     5.010       0.5222E-3     3.406   
   0.4004       0.1768E-2     5.011       0.5497E-3     3.406   
   0.4204       0.1857E-2     5.011       0.5772E-3     3.406   
   0.4404       0.1945E-2     5.011       0.6048E-3     3.406   
   0.4605       0.2034E-2     5.012       0.6323E-3     3.406   
   0.4805       0.2123E-2     5.012       0.6599E-3     3.407   
   0.5005       0.2212E-2     5.013       0.6874E-3     3.407   
   0.5205       0.2301E-2     5.013       0.7150E-3     3.407   
   0.5405       0.2390E-2     5.013       0.7425E-3     3.407   
   0.5606       0.2479E-2     5.014       0.7701E-3     3.407   
   0.5806       0.2568E-2     5.014       0.7977E-3     3.407   
   0.6006       0.2657E-2     5.015       0.8253E-3     3.407   
   0.6206       0.2746E-2     5.015       0.8529E-3     3.408   
   0.6406       0.2835E-2     5.016       0.8805E-3     3.408   
   0.6607       0.2925E-2     5.017       0.9081E-3     3.408   
   0.6807       0.3014E-2     5.017       0.9357E-3     3.408   
   0.7007       0.3103E-2     5.018       0.9633E-3     3.408   
   0.7207       0.3193E-2     5.018       0.9910E-3     3.409   
   0.7407       0.3283E-2     5.019       0.1019E-2     3.409   
   0.7608       0.3372E-2     5.020       0.1046E-2     3.409   
   0.7808       0.3462E-2     5.020       0.1074E-2     3.409   
   0.8008       0.3552E-2     5.021       0.1102E-2     3.409   
   0.8208       0.3642E-2     5.022       0.1129E-2     3.410   
   0.8408       0.3732E-2     5.023       0.1157E-2     3.410   
   0.8609       0.3822E-2     5.023       0.1185E-2     3.410   
   0.8809       0.3912E-2     5.024       0.1212E-2     3.410   
   0.9009       0.4002E-2     5.025       0.1240E-2     3.411   
   0.9209       0.4092E-2     5.026       0.1268E-2     3.411   
   0.9409       0.4183E-2     5.027       0.1296E-2     3.411   
   0.9610       0.4273E-2     5.027       0.1324E-2     3.411   
   0.9810       0.4364E-2     5.028       0.1351E-2     3.412   
    1.001       0.4454E-2     5.029       0.1379E-2     3.412   
    1.021       0.4545E-2     5.030       0.1407E-2     3.412   
    1.041       0.4636E-2     5.031       0.1435E-2     3.412   
    1.061       0.4727E-2     5.032       0.1463E-2     3.413   
    1.081       0.4818E-2     5.033       0.1491E-2     3.413   
    1.101       0.4909E-2     5.034       0.1518E-2     3.413   
    1.121       0.5001E-2     5.035       0.1546E-2     3.414   
    1.141       0.5092E-2     5.036       0.1574E-2     3.414   
    1.161       0.5183E-2     5.037       0.1602E-2     3.414   
    1.181       0.5275E-2     5.038       0.1630E-2     3.415   
    1.201       0.5367E-2     5.039       0.1658E-2     3.415   
    1.221       0.5459E-2     5.040       0.1686E-2     3.415   
    1.241       0.5551E-2     5.041       0.1714E-2     3.416   
    1.261       0.5643E-2     5.042       0.1742E-2     3.416   
    1.281       0.5735E-2     5.043       0.1770E-2     3.416   
    1.301       0.5827E-2     5.045       0.1798E-2     3.417   
    1.321       0.5920E-2     5.046       0.1826E-2     3.417   
    1.341       0.6013E-2     5.047       0.1854E-2     3.417   
    1.361       0.6105E-2     5.048       0.1882E-2     3.418   
    1.381       0.6198E-2     5.049       0.1911E-2     3.418   
    1.401       0.6291E-2     5.051       0.1939E-2     3.419   
    1.421       0.6385E-2     5.052       0.1967E-2     3.419   
    1.441       0.6478E-2     5.053       0.1995E-2     3.419   
    1.461       0.6571E-2     5.055       0.2023E-2     3.420   
    1.481       0.6665E-2     5.056       0.2051E-2     3.420   
    1.502       0.6759E-2     5.057       0.2080E-2     3.421   
    1.522       0.6853E-2     5.059       0.2108E-2     3.421   
    1.542       0.6947E-2     5.060       0.2136E-2     3.421   
    1.562       0.7041E-2     5.061       0.2165E-2     3.422   
    1.582       0.7136E-2     5.063       0.2193E-2     3.422   
    1.602       0.7230E-2     5.064       0.2221E-2     3.423   
    1.622       0.7325E-2     5.066       0.2250E-2     3.423   
    1.642       0.7420E-2     5.067       0.2278E-2     3.424   
    1.662       0.7515E-2     5.069       0.2306E-2     3.424   
    1.682       0.7610E-2     5.070       0.2335E-2     3.425   
    1.702       0.7705E-2     5.072       0.2363E-2     3.425   
    1.722       0.7801E-2     5.073       0.2392E-2     3.425   
    1.742       0.7897E-2     5.075       0.2420E-2     3.426   
    1.762       0.7993E-2     5.076       0.2449E-2     3.426   
    1.782       0.8089E-2     5.078       0.2477E-2     3.427   
    1.802       0.8185E-2     5.080       0.2506E-2     3.427   
    1.822       0.8282E-2     5.081       0.2535E-2     3.428   
    1.842       0.8378E-2     5.083       0.2563E-2     3.428   
    1.862       0.8475E-2     5.085       0.2592E-2     3.429   
    1.882       0.8572E-2     5.086       0.2621E-2     3.429   
    1.902       0.8670E-2     5.088       0.2649E-2     3.430   
    1.922       0.8767E-2     5.090       0.2678E-2     3.431   
    1.942       0.8865E-2     5.092       0.2707E-2     3.431   
    1.962       0.8963E-2     5.093       0.2736E-2     3.432   
    1.982       0.9061E-2     5.095       0.2765E-2     3.432   
    2.002       0.9159E-2     5.097       0.2794E-2     3.433   
    2.022       0.9258E-2     5.099       0.2822E-2     3.433   
    2.042       0.9356E-2     5.101       0.2851E-2     3.434   
    2.062       0.9455E-2     5.103       0.2880E-2     3.434   
    2.082       0.9555E-2     5.104       0.2909E-2     3.435   
    2.102       0.9654E-2     5.106       0.2938E-2     3.436   
    2.122       0.9754E-2     5.108       0.2967E-2     3.436   
    2.142       0.9853E-2     5.110       0.2996E-2     3.437   
    2.162       0.9954E-2     5.112       0.3026E-2     3.437   
    2.182       0.1005E-1     5.114       0.3055E-2     3.438   
    2.202       0.1015E-1     5.116       0.3084E-2     3.439   
    2.222       0.1026E-1     5.118       0.3113E-2     3.439   
    2.242       0.1036E-1     5.120       0.3142E-2     3.440   
    2.262       0.1046E-1     5.122       0.3172E-2     3.440   
    2.282       0.1056E-1     5.125       0.3201E-2     3.441   
    2.302       0.1066E-1     5.127       0.3230E-2     3.442   
    2.322       0.1076E-1     5.129       0.3260E-2     3.442   
    2.342       0.1087E-1     5.131       0.3289E-2     3.443   
    2.362       0.1097E-1     5.133       0.3318E-2     3.444   
    2.382       0.1107E-1     5.135       0.3348E-2     3.444   
    2.402       0.1117E-1     5.138       0.3377E-2     3.445   
    2.422       0.1128E-1     5.140       0.3407E-2     3.446   
    2.442       0.1138E-1     5.142       0.3437E-2     3.446   
    2.462       0.1148E-1     5.144       0.3466E-2     3.447   
    2.482       0.1159E-1     5.147       0.3496E-2     3.448   
    2.503       0.1169E-1     5.149       0.3526E-2     3.449   
    2.523       0.1180E-1     5.151       0.3555E-2     3.449   
    2.543       0.1190E-1     5.154       0.3585E-2     3.450   
    2.563       0.1201E-1     5.156       0.3615E-2     3.451   
    2.583       0.1211E-1     5.159       0.3645E-2     3.451   
    2.603       0.1222E-1     5.161       0.3675E-2     3.452   
    2.623       0.1233E-1     5.164       0.3704E-2     3.453   
    2.643       0.1243E-1     5.166       0.3734E-2     3.454   
    2.663       0.1254E-1     5.168       0.3764E-2     3.454   
    2.683       0.1265E-1     5.171       0.3794E-2     3.455   
    2.703       0.1275E-1     5.174       0.3825E-2     3.456   
    2.723       0.1286E-1     5.176       0.3855E-2     3.457   
    2.743       0.1297E-1     5.179       0.3885E-2     3.457   
    2.763       0.1308E-1     5.181       0.3915E-2     3.458   
    2.783       0.1319E-1     5.184       0.3945E-2     3.459   
    2.803       0.1329E-1     5.187       0.3976E-2     3.460   
    2.823       0.1340E-1     5.189       0.4006E-2     3.461   
    2.843       0.1351E-1     5.192       0.4036E-2     3.461   
    2.863       0.1362E-1     5.195       0.4067E-2     3.462   
    2.883       0.1373E-1     5.197       0.4097E-2     3.463   
    2.903       0.1384E-1     5.200       0.4128E-2     3.464   
    2.923       0.1395E-1     5.203       0.4158E-2     3.465   
    2.943       0.1407E-1     5.206       0.4189E-2     3.465   
    2.963       0.1418E-1     5.209       0.4219E-2     3.466   
    2.983       0.1429E-1     5.211       0.4250E-2     3.467   
    3.003       0.1440E-1     5.214       0.4281E-2     3.468   
    3.023       0.1451E-1     5.217       0.4311E-2     3.469   
    3.043       0.1463E-1     5.220       0.4342E-2     3.470   
    3.063       0.1474E-1     5.223       0.4373E-2     3.471   
    3.083       0.1485E-1     5.226       0.4404E-2     3.472   
    3.103       0.1497E-1     5.229       0.4435E-2     3.472   
    3.123       0.1508E-1     5.232       0.4466E-2     3.473   
    3.143       0.1520E-1     5.235       0.4497E-2     3.474   
    3.163       0.1531E-1     5.238       0.4528E-2     3.475   
    3.183       0.1543E-1     5.241       0.4559E-2     3.476   
    3.203       0.1555E-1     5.244       0.4591E-2     3.477   
    3.223       0.1566E-1     5.247       0.4622E-2     3.478   
    3.243       0.1578E-1     5.251       0.4653E-2     3.479   
    3.263       0.1590E-1     5.254       0.4684E-2     3.480   
    3.283       0.1601E-1     5.257       0.4716E-2     3.481   
    3.303       0.1613E-1     5.260       0.4747E-2     3.482   
    3.323       0.1625E-1     5.263       0.4779E-2     3.483   
    3.343       0.1637E-1     5.267       0.4810E-2     3.483   
    3.363       0.1649E-1     5.270       0.4842E-2     3.484   
    3.383       0.1661E-1     5.273       0.4874E-2     3.485   
    3.403       0.1673E-1     5.277       0.4905E-2     3.486   
    3.423       0.1685E-1     5.280       0.4937E-2     3.487   
    3.443       0.1697E-1     5.283       0.4969E-2     3.488   
    3.463       0.1709E-1     5.287       0.5001E-2     3.489   
    3.483       0.1721E-1     5.290       0.5033E-2     3.490   
    3.504       0.1734E-1     5.294       0.5065E-2     3.491   
    3.524       0.1746E-1     5.297       0.5097E-2     3.492   
    3.544       0.1758E-1     5.301       0.5129E-2     3.493   
    3.564       0.1771E-1     5.304       0.5161E-2     3.494   
    3.584       0.1783E-1     5.308       0.5193E-2     3.496   
    3.604       0.1796E-1     5.311       0.5225E-2     3.497   
    3.624       0.1808E-1     5.315       0.5258E-2     3.498   
    3.644       0.1821E-1     5.318       0.5290E-2     3.499   
      3.6637       0.0183       5.3222       0.0053       3.4997
      3.6837       0.0185       5.3258       0.0054       3.5008
      3.7037       0.0186       5.3295       0.0054       3.5019
      3.7237       0.0187       5.3333       0.0054       3.5030
      3.7437       0.0188       5.3370       0.0055       3.5040
      3.7638       0.0190       5.3408       0.0055       3.5052
      3.7838       0.0191       5.3446       0.0055       3.5062
      3.8038       0.0192       5.3484       0.0056       3.5074
      3.8238       0.0194       5.3523       0.0056       3.5084
      3.8438       0.0195       5.3562       0.0056       3.5096
      3.8639       0.0196       5.3601       0.0057       3.5107
      3.8839       0.0198       5.3641       0.0057       3.5118
      3.9039       0.0199       5.3680       0.0057       3.5130
      3.9239       0.0200       5.3720       0.0057       3.5141
      3.9439       0.0202       5.3760       0.0058       3.5153
      3.9640       0.0203       5.3801       0.0058       3.5165
      3.9840       0.0204       5.3842       0.0058       3.5176
      4.0040       0.0206       5.3883       0.0059       3.5188
      4.0240       0.0207       5.3924       0.0059       3.5200
      4.0440       0.0208       5.3965       0.0060       3.5212
      4.0641       0.0210       5.4007       0.0060       3.5224
      4.0841       0.0211       5.4049       0.0060       3.5235
      4.1041       0.0212       5.4092       0.0061       3.5248
      4.1241       0.0214       5.4134       0.0061       3.5260
      4.1441       0.0215       5.4177       0.0061       3.5272
      4.1642       0.0217       5.4220       0.0062       3.5284
      4.1842       0.0218       5.4264       0.0062       3.5297
      4.2042       0.0219       5.4308       0.0062       3.5309
      4.2242       0.0221       5.4352       0.0063       3.5322
      4.2442       0.0222       5.4396       0.0063       3.5334
      4.2643       0.0224       5.4441       0.0063       3.5347
      4.2843       0.0225       5.4486       0.0064       3.5360
      4.3043       0.0227       5.4531       0.0064       3.5372
      4.3243       0.0228       5.4576       0.0064       3.5385
      4.3443       0.0229       5.4622       0.0065       3.5398
      4.3644       0.0231       5.4668       0.0065       3.5411
      4.3844       0.0232       5.4715       0.0065       3.5424
      4.4044       0.0234       5.4761       0.0066       3.5437
      4.4244       0.0235       5.4808       0.0066       3.5450
      4.4444       0.0237       5.4855       0.0066       3.5464
      4.4645       0.0238       5.4903       0.0067       3.5477
      4.4845       0.0240       5.4951       0.0067       3.5490
      4.5045       0.0241       5.4999       0.0067       3.5504
      4.5245       0.0243       5.5047       0.0068       3.5517
      4.5445       0.0244       5.5096       0.0068       3.5531
      4.5646       0.0246       5.5145       0.0068       3.5544
      4.5846       0.0247       5.5195       0.0069       3.5558
      4.6046       0.0249       5.5244       0.0069       3.5572
      4.6246       0.0250       5.5294       0.0070       3.5586
      4.6446       0.0252       5.5344       0.0070       3.5600
      4.6647       0.0254       5.5395       0.0070       3.5614
      4.6847       0.0255       5.5446       0.0071       3.5628
      4.7047       0.0257       5.5497       0.0071       3.5642
      4.7247       0.0258       5.5549       0.0071       3.5657
      4.7447       0.0260       5.5601       0.0072       3.5671
      4.7648       0.0262       5.5653       0.0072       3.5685
      4.7848       0.0263       5.5706       0.0072       3.5700
      4.8048       0.0265       5.5758       0.0073       3.5714
      4.8248       0.0266       5.5811       0.0073       3.5729
      4.8448       0.0268       5.5865       0.0074       3.5744
      4.8649       0.0270       5.5919       0.0074       3.5758
      4.8849       0.0271       5.5973       0.0074       3.5773
      4.9049       0.0273       5.6027       0.0075       3.5788
      4.9249       0.0275       5.6082       0.0075       3.5803
      4.9449       0.0276       5.6137       0.0075       3.5818
      4.9650       0.0278       5.6193       0.0076       3.5833
      4.9850       0.0280       5.6249       0.0076       3.5848
      5.0050       0.0281       5.6305       0.0077       3.5864
      5.0250       0.0283       5.6361       0.0077       3.5879
      5.0450       0.0285       5.6418       0.0077       3.5895
      5.0651       0.0287       5.6475       0.0078       3.5910
      5.0851       0.0288       5.6533       0.0078       3.5926
      5.1051       0.0290       5.6591       0.0078       3.5941
      5.1251       0.0292       5.6649       0.0079       3.5957
      5.1451       0.0294       5.6707       0.0079       3.5973
      5.1652       0.0295       5.6766       0.0080       3.5989
      5.1852       0.0297       5.6826       0.0080       3.6004
      5.2052       0.0299       5.6885       0.0080       3.6021
      5.2252       0.0301       5.6946       0.0081       3.6037
      5.2452       0.0303       5.7006       0.0081       3.6053
      5.2653       0.0304       5.7067       0.0081       3.6069
      5.2853       0.0306       5.7128       0.0082       3.6085
      5.3053       0.0308       5.7189       0.0082       3.6102
      5.3253       0.0310       5.7251       0.0083       3.6118
      5.3453       0.0312       5.7313       0.0083       3.6135
      5.3654       0.0314       5.7376       0.0083       3.6152
      5.3854       0.0316       5.7439       0.0084       3.6168
      5.4054       0.0318       5.7502       0.0084       3.6185
      5.4254       0.0319       5.7566       0.0085       3.6202
      5.4454       0.0321       5.7630       0.0085       3.6219
      5.4655       0.0323       5.7695       0.0085       3.6236
