#                                                           
# :::   :::   :::     ::::    ::::  :::::::::   ::::::::    
# :+:   :+: :+: :+:   +:+:+: :+:+:+ :+:    :+: :+:    :+:   
#  +:+ +:+ +:+   +:+  +:+ +:+:+ +:+ +:+    +:+ +:+    +:+   
#   +#++: +#++:++#++: +#+  +:+  +#+ +#++:++#+  +#+    +:+   
#    +#+  +#+     +#+ +#+       +#+ +#+    +#+ +#+    +#+   
#    #+#  #+#     #+# #+#       #+# #+#    #+# #+#    #+#   
#    ###  ###     ### ###       ### #########   ########    
#                                                           
#             GPL Version 3.3.1 Revision 2132               
#                http://www.yambo-code.org                  
#
#   1          2          3          4          5          6          7          8          9
#  hw (eV)    REELS(x)   REELS(y)      Avg       Diff     Rel Diff   -2drv(x)   -2drv(y)   -Avg2Drv
     0.00000    0.30706    0.40206    0.35456   -0.09500   -0.26793  -22.34936  -30.17247  -26.26091
   0.1000E-1  0.3342     0.4381     0.3862     -.1040     -.2692     -22.35     -30.17     -26.26   
   0.2000E-1  0.3636     0.4773     0.4204     -.1137     -.2705     -23.95     -32.36     -28.16   
   0.3000E-1  0.3953     0.5196     0.4575     -.1243     -.2717     -25.64     -34.67     -30.15   
     0.04000    0.42964    0.56541    0.49753   -0.13577   -0.27289  -27.41098  -37.08720  -32.24909
     0.05000    0.46671    0.61493    0.54082   -0.14823   -0.27408  -29.27542  -39.63828  -34.45685
     0.06000    0.50670    0.66841    0.58756   -0.16172   -0.27524  -31.22571  -42.30026  -36.76298
     0.07000    0.54981    0.72613    0.63797   -0.17631   -0.27637  -33.26774  -45.09211  -39.17992
     0.08000    0.59625    0.78835    0.69230   -0.19210   -0.27747  -35.39678  -47.99837  -41.69758
     0.09000    0.64624    0.85537    0.75080   -0.20914   -0.27855  -37.61648  -51.02394  -44.32021
     0.10000    0.69998    0.92750    0.81374   -0.22752   -0.27960  -39.92321  -54.18064  -47.05193
     0.11000    0.75771    1.00504    0.88138   -0.24733   -0.28061  -42.30859  -57.43506  -49.87182
     0.12000    0.81968    1.08833    0.95400   -0.26865   -0.28160  -44.78695  -60.81583  -52.80139
     0.13000    0.88613    1.17769    1.03191   -0.29157   -0.28255  -47.34283  -64.29203  -55.81743
     0.14000    0.95730    1.27349    1.11540   -0.31619   -0.28347  -49.97375  -67.87780  -58.92577
     0.15000    1.03348    1.37608    1.20478   -0.34259   -0.28436  -52.67614  -71.55650  -62.11632
     0.16000    1.11493    1.48582    1.30037   -0.37089   -0.28522  -55.44656  -75.33065  -65.38861
     0.17000    1.20191    1.60309    1.40250   -0.40118   -0.28604  -58.27182  -79.16203  -68.71693
     0.18000    1.29473    1.72828    1.51150   -0.43355   -0.28683  -61.16393  -83.07222  -72.11807
     0.19000    1.39366    1.86178    1.62772   -0.46811   -0.28759  -64.09171  -87.06573  -75.57872
     0.20000    1.49900    2.00398    1.75149   -0.50498   -0.28831  -67.05515  -91.05196  -79.05356
     0.21000    1.61105    2.15529    1.88317   -0.54424   -0.28900  -70.04979  -95.12428  -82.58704
     0.22000    1.73010    2.31611    2.02311   -0.58601   -0.28966  -73.07544  -99.15848  -86.11696
      0.2300     1.8565     2.4868     2.1717    -0.6304    -0.2903   -76.0889  -103.2305   -89.6597
      0.2400     1.9904     2.6679     2.3292    -0.6775    -0.2909   -79.0953  -107.2930   -93.1941
      0.2500     2.1323     2.8597     2.4960    -0.7274    -0.2914   -82.0971  -111.2748   -96.6859
      0.2600     2.2824     3.0626     2.6725    -0.7802    -0.2919   -85.0581  -115.2228  -100.1405
      0.2700     2.4410     3.2771     2.8590    -0.8361    -0.2924   -87.9528  -119.0855  -103.5192
      0.2800     2.6084     3.5034     3.0559    -0.8950    -0.2929   -90.8138  -122.8669  -106.8403
      0.2900     2.7849     3.7420     3.2634    -0.9572    -0.2933   -93.5840  -126.5286  -110.0563
      0.3000     2.9707     3.9933     3.4820    -1.0226    -0.2937   -96.2542  -130.0047  -113.1295
      0.3100     3.1661     4.2576     3.7119    -1.0915    -0.2940   -98.7910  -133.2949  -116.0430
      0.3200     3.3715     4.5352     3.9533    -1.1638    -0.2944  -101.2133  -136.4325  -118.8229
      0.3300     3.5869     4.8265     4.2067    -1.2396    -0.2947  -103.4926  -139.3698  -121.4312
      0.3400     3.8127     5.1317     4.4722    -1.3189    -0.2949  -105.5719  -141.9642  -123.7681
      0.3500     4.0491     5.4511     4.7501    -1.4020    -0.2951  -107.4504  -144.3003  -125.8753
      0.3600     4.2962     5.7849     5.0405    -1.4887    -0.2953  -109.1578  -146.3893  -127.7735
      0.3700     4.5542     6.1334     5.3438    -1.5791    -0.2955  -110.5978  -148.0678  -129.3328
      0.3800     4.8233     6.4966     5.6600    -1.6733    -0.2956  -111.8087  -149.4215  -130.6151
      0.3900     5.1036     6.8748     5.9892    -1.7713    -0.2957  -112.7242  -150.3943  -131.5592
      0.4000     5.3951     7.2681     6.3316    -1.8730    -0.2958  -113.3250  -150.8711  -132.0981
      0.4100     5.6980     7.6764     6.6872    -1.9785    -0.2959  -113.6779  -150.9760  -132.3269
      0.4200     6.0122     8.0999     7.0560    -2.0877    -0.2959  -113.6874  -150.6232  -132.1553
      0.4300     6.3378     8.5384     7.4381    -2.2006    -0.2958  -113.2490  -149.6890  -131.4690
      0.4400     6.6747     8.9918     7.8333    -2.3171    -0.2958  -112.5907  -148.3534  -130.4720
      0.4500     7.0229     9.4601     8.2415    -2.4372    -0.2957  -111.4561  -146.4084  -128.9323
      0.4600     7.3823     9.9431     8.6627    -2.5608    -0.2956  -110.0158  -143.9284  -126.9721
      0.4700     7.7526    10.4404     9.0965    -2.6878    -0.2955  -108.0130  -140.8003  -124.4067
      0.4800     8.1337    10.9518     9.5428    -2.8181    -0.2953  -105.7630  -137.1772  -121.4701
      0.4900     8.5254    11.4770    10.0012    -2.9515    -0.2951  -102.9967  -133.0565  -118.0266
      0.5000     8.9274    12.0154    10.4714    -3.0879    -0.2949   -99.8305  -128.0211  -113.9258
      0.5100     9.3394    12.5666    10.9530    -3.2272    -0.2946   -96.1687  -122.7190  -109.4439
      0.5200     9.7610    13.1301    11.4456    -3.3691    -0.2944   -92.1633  -116.6346  -104.3989
      0.5300    10.1919    13.7053    11.9486    -3.5134    -0.2940   -87.6042  -109.8438   -98.7240
      0.5400    10.6315    14.2915    12.4615    -3.6600    -0.2937   -82.6260  -102.6340   -92.6300
     0.55000   11.07931   14.88791   12.98361   -3.80860   -0.29334  -77.34360  -94.81505  -86.07932
     0.56000   11.53489   15.49382   13.51435   -3.95892   -0.29294  -71.44942  -86.26955  -78.85948
     0.57000   11.99762   16.10835   14.05299   -4.11073   -0.29252  -65.26920  -77.24731  -71.25826
     0.58000   12.46688   16.73061   14.59874   -4.26373   -0.29206  -58.63166  -67.71060  -63.17113
     0.59000   12.94200   17.35964   15.15082   -4.41764   -0.29158  -51.61295  -57.52575  -54.56935
     0.60000   13.42228   17.99442   15.70835   -4.57214   -0.29106  -44.15520  -46.95901  -45.55711
     0.61000   13.90698   18.63390   16.27044   -4.72693   -0.29052  -36.52558  -35.97245  -36.24902
     0.62000   14.39533   19.27698   16.83615   -4.88165   -0.28995  -28.43862  -24.49040  -26.46451
     0.63000   14.88652   19.92251   17.40451   -5.03598   -0.28935  -20.08442  -12.47408  -16.27925
     0.64000   15.37972   20.56928   17.97450   -5.18955   -0.28872  -11.38689   -0.34332   -5.86511
     0.65000   15.87407   21.21608   18.54507   -5.34202   -0.28806   -2.70842   12.13069    4.71113
     0.66000   16.36868   21.86168   19.11518   -5.49300   -0.28736    6.56129   24.91002   15.73566
     0.67000   16.86264   22.50478   19.68371   -5.64214   -0.28664   15.52585   37.91816   26.72201
     0.68000   17.35504   23.14408   20.24956   -5.78904   -0.28588   24.94802   50.88786   37.91794
     0.69000   17.84495   23.77831   20.81163   -5.93335   -0.28510   34.33234   64.20148   49.26691
     0.70000   18.33143   24.40611   21.36877   -6.07468   -0.28428   43.75466   77.28591   60.52029
     0.71000   18.81353   25.02618   21.91985   -6.21265   -0.28343   53.25296   90.25537   71.75417
      0.7200    19.2903    25.6372    22.4638    -6.3469    -0.2825    62.4845   103.4542    82.9693
      0.7300    19.7608    26.2379    22.9994    -6.4771    -0.2816    71.7169   116.2347    93.9758
      0.7400    20.2242    26.8270    23.5256    -6.6028    -0.2807    80.8717   128.7081   104.7899
      0.7500    20.6795    27.4032    24.0413    -6.7238    -0.2797    89.7213   140.9906   115.3560
      0.7600    21.1258    27.9653    24.5455    -6.8396    -0.2786    98.4188   152.8925   125.6556
      0.7700    21.5622    28.5121    25.0372    -6.9499    -0.2776   106.5447   164.4138   135.4792
      0.7800    21.9880    29.0425    25.5153    -7.0545    -0.2765   114.5937   174.9805   144.7871
      0.7900    22.4023    29.5554    25.9789    -7.1531    -0.2753   122.3750   185.6606   154.0178
      0.8000    22.8044    30.0497    26.4271    -7.2453    -0.2742   129.2040   195.3129   162.2585
      0.8100    23.1936    30.5245    26.8591    -7.3309    -0.2729   136.1468   204.0104   170.0786
      0.8200    23.5692    30.9789    27.2740    -7.4097    -0.2717   141.9070   212.5553   177.2312
      0.8300    23.9306    31.4120    27.6713    -7.4814    -0.2704   147.7808   219.8401   183.8105
      0.8400    24.2772    31.8231    28.0502    -7.5460    -0.2690   152.5119   226.4790   189.4955
      0.8500    24.6085    32.2116    28.4101    -7.6031    -0.2676   156.8607   231.9340   194.3973
      0.8600    24.9242    32.5769    28.7506    -7.6528    -0.2662   160.5981   237.1206   198.8593
      0.8700    25.2238    32.9185    29.0711    -7.6947    -0.2647   163.2693   240.1738   201.7216
      0.8800    25.5071    33.2361    29.3716    -7.7290    -0.2631   165.6736   243.6848   204.6792
      0.8900    25.7738    33.5293    29.6515    -7.7555    -0.2616   166.9305   244.8263   205.8784
      0.9000    26.0238    33.7980    29.9109    -7.7742    -0.2599   167.8450   245.8166   206.8308
      0.9100    26.2570    34.0422    30.1496    -7.7852    -0.2582   167.6954   245.0581   206.3767
      0.9200    26.4735    34.2618    30.3676    -7.7883    -0.2565   166.7417   243.7611   205.2514
      0.9300    26.6732    34.4571    30.5652    -7.7838    -0.2547   165.2129   241.1628   203.1878
      0.9400    26.8565    34.6282    30.7424    -7.7717    -0.2528   162.9632   237.6547   200.3089
      0.9500    27.0235    34.7756    30.8995    -7.7521    -0.2509   159.4174   232.6984   196.0579
      0.9600    27.1745    34.8997    31.0371    -7.7252    -0.2489   155.7162   227.3564   191.5363
      0.9700    27.3099    35.0010    31.1555    -7.6911    -0.2469   150.9860   220.2610   185.6235
      0.9800    27.4303    35.0804    31.2553    -7.6501    -0.2448   145.6445   212.8592   179.2519
      0.9900    27.5361    35.1385    31.3373    -7.6024    -0.2426   139.3885   204.3906   171.8896
      1.0000    27.6279    35.1761    31.4020    -7.5481    -0.2404   133.2476   194.3211   163.7843
      1.0100    27.7065    35.1943    31.4504    -7.4878    -0.2381   125.1605   184.3265   154.7435
      1.0200    27.7725    35.1940    31.4832    -7.4216    -0.2357   117.7204   173.1092   145.4148
      1.0300    27.8267    35.1765    31.5016    -7.3498    -0.2333   108.9861   160.9042   134.9452
      1.0400    27.8700    35.1428    31.5064    -7.2728    -0.2308   100.0227   148.6990   124.3609
      1.0500    27.9034    35.0943    31.4989    -7.1909    -0.2283    90.5992   135.2694   112.9343
      1.0600    27.9277    35.0323    31.4800    -7.1046    -0.2257    80.8336   121.7654   101.2995
      1.0700    27.9438    34.9581    31.4510    -7.0142    -0.2230    70.8382   107.4208    89.1295
     1.08000   27.95296   34.87313   31.41304   -6.92017   -0.22030   60.15718   93.00139   76.57928
     1.09000   27.95605   34.77887   31.36746   -6.82282   -0.21751   49.62931   78.12515   63.87723
     1.10000   27.95418   34.67680   31.31549   -6.72262   -0.21467   38.90998   63.01892   50.96445
     1.11000   27.94841   34.56842   31.25842   -6.62000   -0.21178   28.07656   47.98956   38.03306
     1.12000   27.93984   34.45524   31.19754   -6.51540   -0.20884   16.93729   32.88275   24.91002
     1.13000   27.92958   34.33878   31.13418   -6.40920   -0.20586    6.21789   17.70002   11.95896
     1.14000   27.91870   34.22056   31.06963   -6.30186   -0.20283   -4.42506    2.59400   -0.91553
     1.15000   27.90825   34.10208   31.00517   -6.19382   -0.19977  -15.14438  -12.13076  -13.63757
     1.16000   27.89932   33.98481   30.94207   -6.08549   -0.19667  -25.44378  -26.77891  -26.11134
     1.17000   27.89294   33.87022   30.88158   -5.97728   -0.19355  -35.62891  -40.66426  -38.14659
     1.18000   27.89012   33.75970   30.82491   -5.86958   -0.19042  -44.93776  -54.55093  -49.74434
     1.19000   27.89180   33.65463   30.77321   -5.76283   -0.18727  -54.66537  -67.36848  -61.01693
     1.20000   27.89894   33.55629   30.72761   -5.65735   -0.18411  -63.09521  -80.03250  -71.56386
     1.21000   27.91239   33.46595   30.68917   -5.55356   -0.18096  -71.67744  -91.85699  -81.76721
      1.2200    27.9330    33.3848    30.6589    -5.4518    -0.1778   -79.1542  -102.9958   -91.0750
      1.2300    27.9615    33.3139    30.6377    -5.3524    -0.1747   -86.3649  -112.9153   -99.6401
      1.2400    27.9987    33.2544    30.6265    -5.2557    -0.1716   -92.6592  -122.4520  -107.5556
      1.2500    28.0452    33.2071    30.6261    -5.1619    -0.1685   -98.4194  -130.8444  -114.6319
      1.2600    28.1014    33.1728    30.6371    -5.0714    -0.1655  -103.4166  -138.5501  -120.9834
      1.2700    28.1680    33.1524    30.6602    -4.9844    -0.1626  -107.5747  -144.8062  -126.1904
      1.2800    28.2454    33.1465    30.6960    -4.9011    -0.1597  -110.8935  -150.3757  -130.6346
      1.2900    28.3339    33.1557    30.7448    -4.8218    -0.1568  -113.5638  -154.4192  -133.9915
    1.300      28.43      33.18      30.81     -4.747     -.1541     -115.1     -158.2     -136.7   
    1.310      28.55      33.22      30.88     -4.676     -.1514     -116.4     -160.0     -138.2   
    1.320      28.67      33.28      30.97     -4.609     -.1488     -115.9     -161.4     -138.6   
    1.330      28.80      33.35      31.08     -4.547     -.1463     -115.3     -161.1     -138.2   
    1.340      28.95      33.44      31.19     -4.490     -.1439     -113.9     -160.0     -136.9   
    1.350      29.11      33.54      31.32     -4.437     -.1416     -111.0     -157.9     -134.4   
    1.360      29.27      33.66      31.47     -4.388     -.1395     -107.8     -154.6     -131.2   
    1.370      29.45      33.80      31.63     -4.345     -.1374     -103.6     -150.1     -126.9   
    1.380      29.64      33.95      31.80     -4.306     -.1354     -98.76     -144.5     -121.6   
    1.390      29.84      34.12      31.98     -4.272     -.1336     -93.16     -138.6     -115.9   
      1.4000    30.0523    34.2945    32.1734    -4.2422    -0.1319   -86.4794  -131.0732  -108.7763
      1.4100    30.2699    34.4868    32.3784    -4.2169    -0.1302   -79.6129  -122.6046  -101.1087
      1.4200    30.4954    34.6914    32.5934    -4.1960    -0.1287   -71.7164  -113.7545   -92.7355
      1.4300    30.7281    34.9074    32.8177    -4.1792    -0.1273   -63.3615  -103.9876   -83.6745
     1.44000   30.96717   35.13369   33.05043   -4.16652   -0.12607  -54.62592  -93.07768  -73.85180
     1.45000   31.21167   35.36934   33.29050   -4.15767   -0.12489  -45.28054  -82.01614  -63.64834
     1.46000   31.46069   35.61318   33.53694   -4.15249   -0.12382  -35.32416  -69.96168  -52.64292
     1.47000   31.71325   35.86403   33.78864   -4.15078   -0.12285  -25.10105  -57.67902  -41.39004
     1.48000   31.96832   36.12064   34.04448   -4.15232   -0.12197  -14.61032  -44.78463  -29.69747
     1.49000   32.22484   36.38173   34.30328   -4.15688   -0.12118   -3.73837  -31.66167  -17.70002
     1.50000   32.48175   36.64598   34.56387   -4.16423   -0.12048    7.24794  -17.62393   -5.18800
     1.51000   32.73793   36.91200   34.82496   -4.17407   -0.11986   18.38688   -4.19618    7.09535
     1.52000   32.99227   37.17844   35.08535   -4.18617   -0.11931   29.67840    9.91823   19.79832
     1.53000   33.24364   37.44389   35.34377   -4.20025   -0.11884   40.89315   23.42201   32.15758
     1.54000   33.49092   37.70699   35.59896   -4.21607   -0.11843   52.26145   38.29963   45.28054
     1.55000   33.73298   37.96627   35.84962   -4.23329   -0.11808   63.32485   51.72801   57.52643
     1.56000   33.96870   38.22037   36.09454   -4.25166   -0.11779   74.23415   65.53662   69.88539
     1.57000   34.19701   38.46791   36.33246   -4.27091   -0.11755   84.83802   79.11603   81.97702
     1.58000   34.41682   38.70755   36.56219   -4.29073   -0.11735   95.51906   92.31475   93.91690
      1.5900    34.6271    38.9380    36.7825    -4.3109    -0.1172   105.4384   105.2858   105.3621
    1.600      34.83      39.16      36.99     -4.331     -.1171      115.1      117.6      116.3   
    1.610      35.02      39.37      37.19     -4.351     -.1170      124.7      129.5      127.1   
    1.620      35.19      39.56      37.38     -4.370     -.1169      132.9      140.9      136.9   
    1.630      35.35      39.74      37.55     -4.389     -.1169      141.4      151.4      146.4   
    1.640      35.50      39.91      37.70     -4.407     -.1169      149.1      161.5      155.3   
    1.650      35.63      40.06      37.85     -4.423     -.1169      155.9      170.7      163.3   
    1.660      35.75      40.19      37.97     -4.438     -.1169      162.3      179.4      170.8   
    1.670      35.85      40.31      38.08     -4.451     -.1169      168.2      187.0      177.6   
    1.680      35.94      40.40      38.17     -4.462     -.1169      172.7      193.6      183.1   
    1.690      36.01      40.48      38.24     -4.472     -.1169      177.3      199.9      188.6   
    1.700      36.06      40.54      38.30     -4.479     -.1169      180.5      204.7      192.6   
    1.710      36.09      40.57      38.33     -4.483     -.1170      183.3      208.8      196.1   
    1.720      36.10      40.59      38.34     -4.485     -.1170      185.2      212.4      198.8   
    1.730      36.10      40.58      38.34     -4.484     -.1170      186.2      214.2      200.2   
    1.740      36.07      40.55      38.31     -4.481     -.1170      186.8      216.0      201.4   
    1.750      36.03      40.50      38.27     -4.475     -.1169      186.5      216.1      201.3   
    1.760      35.97      40.43      38.20     -4.465     -.1169      185.2      215.8      200.5   
    1.770      35.89      40.34      38.12     -4.453     -.1168      183.1      214.3      198.7   
    1.780      35.79      40.23      38.01     -4.437     -.1167      181.0      212.0      196.5   
    1.790      35.68      40.09      37.88     -4.418     -.1166      177.3      208.9      193.1   
    1.800      35.54      39.94      37.74     -4.397     -.1165      173.6      205.1      189.3   
    1.810      35.39      39.76      37.58     -4.372     -.1163      168.8      200.3      184.6   
    1.820      35.22      39.57      37.39     -4.343     -.1162      163.3      194.5      178.9   
    1.830      35.04      39.35      37.19     -4.312     -.1159      158.1      188.8      173.4   
    1.840      34.84      39.12      36.98     -4.278     -.1157      151.4      181.5      166.4   
    1.850      34.62      38.86      36.74     -4.240     -.1154      144.7      174.0      159.3   
    1.860      34.39      38.59      36.49     -4.200     -.1151      137.1      166.3      151.7   
    1.870      34.15      38.31      36.23     -4.157     -.1147      129.7      157.5      143.6   
    1.880      33.89      38.00      35.95     -4.111     -.1144      121.5      148.5      135.0   
