#                                                           
#                                                           
# Y88b    /   e           e    e      888~~\    ,88~-_      
#  Y88b  /   d8b         d8b  d8b     888   |  d888   \     
#   Y88b/   /Y88b       d888bdY88b    888 _/  88888    |    
#    Y8Y   /  Y88b     / Y88Y Y888b   888  \  88888    |    
#     Y   /____Y88b   /   YY   Y888b  888   |  Y888   /     
#    /   /      Y88b /          Y888b 888__/    `88_-~      
#                                                           
#                                                           
#       Version 4.3.0 Revision 15746 Hash 61e4334           
#                     MPI+SLK Build                         
#               http://www.yambo-code.org                   
#
# EELS @ Q(1)  [q->0 direction]:0.1000E-4  0.000     0.000   
#
#
# - Energies      are Teter 93(XC)
# - Wavefunctions are Teter 93(XC)
#
# - The Green`s function is Retarded -
# - Using the Length Gauge -
# - [r,Vnl] *is* included -
#
#   BSK|Identifier              :4619
#      |Dimension               :9
#      |Bands                   :1 - 10
#      |Exchange           [res]: yes
#      |Correlation        [res]: no
#      |Kernel`s coupling       : yes
#      |Exchange           [cpl]: yes
#      |Correlation        [cpl]: no
#      |W interaction is bare   : no
#      |ALDA kernel in R-space  : no
#      |RL vectors    [exchange]:4945
#      |E/h energy range    [ev]:-1.000000 - -1.000000
#      |Coupling range     [o/o]: 100.0000 -  100.0000
#
#    E/ev[1]      EEL-Im[2]    EEL-Re[3]    EELo-Im[4]   EELo-Re[5]
#
    6.000       0.9580E-4    -.9854       0.1540E-3    -.9813   
    6.020       0.9638E-4    -.9853       0.1550E-3    -.9813   
    6.040       0.9697E-4    -.9853       0.1560E-3    -.9813   
    6.060       0.9756E-4    -.9853       0.1571E-3    -.9812   
    6.080       0.9816E-4    -.9853       0.1582E-3    -.9812   
    6.100       0.9876E-4    -.9853       0.1592E-3    -.9812   
    6.120       0.9936E-4    -.9852       0.1603E-3    -.9812   
    6.140       0.9997E-4    -.9852       0.1614E-3    -.9811   
    6.160       0.1006E-3    -.9852       0.1625E-3    -.9811   
    6.180       0.1012E-3    -.9852       0.1636E-3    -.9811   
    6.200       0.1018E-3    -.9852       0.1647E-3    -.9810   
    6.220       0.1024E-3    -.9851       0.1658E-3    -.9810   
    6.240       0.1031E-3    -.9851       0.1670E-3    -.9810   
    6.261       0.1037E-3    -.9851       0.1681E-3    -.9809   
    6.281       0.1043E-3    -.9851       0.1693E-3    -.9809   
    6.301       0.1050E-3    -.9851       0.1704E-3    -.9809   
    6.321       0.1056E-3    -.9850       0.1716E-3    -.9808   
    6.341       0.1063E-3    -.9850       0.1728E-3    -.9808   
    6.361       0.1069E-3    -.9850       0.1740E-3    -.9807   
    6.381       0.1076E-3    -.9850       0.1752E-3    -.9807   
    6.401       0.1082E-3    -.9849       0.1764E-3    -.9807   
    6.421       0.1089E-3    -.9849       0.1776E-3    -.9806   
    6.441       0.1096E-3    -.9849       0.1788E-3    -.9806   
    6.461       0.1103E-3    -.9849       0.1801E-3    -.9806   
    6.481       0.1109E-3    -.9849       0.1813E-3    -.9805   
    6.501       0.1116E-3    -.9848       0.1826E-3    -.9805   
    6.521       0.1123E-3    -.9848       0.1839E-3    -.9805   
    6.541       0.1130E-3    -.9848       0.1851E-3    -.9804   
    6.561       0.1137E-3    -.9848       0.1864E-3    -.9804   
    6.581       0.1144E-3    -.9847       0.1877E-3    -.9804   
    6.601       0.1151E-3    -.9847       0.1891E-3    -.9803   
    6.621       0.1158E-3    -.9847       0.1904E-3    -.9803   
    6.641       0.1166E-3    -.9847       0.1917E-3    -.9802   
    6.661       0.1173E-3    -.9847       0.1931E-3    -.9802   
    6.681       0.1180E-3    -.9846       0.1944E-3    -.9802   
    6.701       0.1188E-3    -.9846       0.1958E-3    -.9801   
    6.721       0.1195E-3    -.9846       0.1972E-3    -.9801   
    6.741       0.1202E-3    -.9846       0.1986E-3    -.9800   
    6.762       0.1210E-3    -.9845       0.2000E-3    -.9800   
    6.782       0.1218E-3    -.9845       0.2014E-3    -.9800   
    6.802       0.1225E-3    -.9845       0.2029E-3    -.9799   
    6.822       0.1233E-3    -.9845       0.2043E-3    -.9799   
    6.842       0.1241E-3    -.9844       0.2058E-3    -.9798   
    6.862       0.1248E-3    -.9844       0.2072E-3    -.9798   
    6.882       0.1256E-3    -.9844       0.2087E-3    -.9798   
    6.902       0.1264E-3    -.9844       0.2102E-3    -.9797   
    6.922       0.1272E-3    -.9843       0.2117E-3    -.9797   
    6.942       0.1280E-3    -.9843       0.2133E-3    -.9796   
    6.962       0.1288E-3    -.9843       0.2148E-3    -.9796   
    6.982       0.1297E-3    -.9843       0.2164E-3    -.9795   
    7.002       0.1305E-3    -.9842       0.2179E-3    -.9795   
    7.022       0.1313E-3    -.9842       0.2195E-3    -.9795   
    7.042       0.1322E-3    -.9842       0.2211E-3    -.9794   
    7.062       0.1330E-3    -.9842       0.2227E-3    -.9794   
    7.082       0.1339E-3    -.9841       0.2244E-3    -.9793   
    7.102       0.1347E-3    -.9841       0.2260E-3    -.9793   
    7.122       0.1356E-3    -.9841       0.2277E-3    -.9792   
    7.142       0.1364E-3    -.9840       0.2294E-3    -.9792   
    7.162       0.1373E-3    -.9840       0.2311E-3    -.9791   
    7.182       0.1382E-3    -.9840       0.2328E-3    -.9791   
    7.202       0.1391E-3    -.9840       0.2345E-3    -.9790   
    7.222       0.1400E-3    -.9839       0.2362E-3    -.9790   
    7.242       0.1409E-3    -.9839       0.2380E-3    -.9790   
    7.263       0.1418E-3    -.9839       0.2398E-3    -.9789   
    7.283       0.1427E-3    -.9839       0.2416E-3    -.9789   
    7.303       0.1437E-3    -.9838       0.2434E-3    -.9788   
    7.323       0.1446E-3    -.9838       0.2452E-3    -.9788   
    7.343       0.1455E-3    -.9838       0.2471E-3    -.9787   
    7.363       0.1465E-3    -.9837       0.2489E-3    -.9787   
    7.383       0.1475E-3    -.9837       0.2508E-3    -.9786   
    7.403       0.1484E-3    -.9837       0.2527E-3    -.9786   
    7.423       0.1494E-3    -.9836       0.2546E-3    -.9785   
    7.443       0.1504E-3    -.9836       0.2566E-3    -.9785   
    7.463       0.1514E-3    -.9836       0.2586E-3    -.9784   
    7.483       0.1524E-3    -.9836       0.2605E-3    -.9784   
    7.503       0.1534E-3    -.9835       0.2625E-3    -.9783   
    7.523       0.1544E-3    -.9835       0.2646E-3    -.9782   
    7.543       0.1554E-3    -.9835       0.2666E-3    -.9782   
    7.563       0.1565E-3    -.9834       0.2687E-3    -.9781   
    7.583       0.1575E-3    -.9834       0.2708E-3    -.9781   
    7.603       0.1586E-3    -.9834       0.2729E-3    -.9780   
    7.623       0.1596E-3    -.9833       0.2750E-3    -.9780   
    7.643       0.1607E-3    -.9833       0.2772E-3    -.9779   
    7.663       0.1618E-3    -.9833       0.2793E-3    -.9779   
    7.683       0.1629E-3    -.9832       0.2815E-3    -.9778   
    7.703       0.1640E-3    -.9832       0.2838E-3    -.9778   
    7.723       0.1651E-3    -.9832       0.2860E-3    -.9777   
    7.743       0.1662E-3    -.9831       0.2883E-3    -.9776   
    7.764       0.1673E-3    -.9831       0.2906E-3    -.9776   
    7.784       0.1685E-3    -.9831       0.2929E-3    -.9775   
    7.804       0.1696E-3    -.9830       0.2952E-3    -.9775   
    7.824       0.1708E-3    -.9830       0.2976E-3    -.9774   
    7.844       0.1719E-3    -.9830       0.3000E-3    -.9773   
    7.864       0.1731E-3    -.9829       0.3024E-3    -.9773   
    7.884       0.1743E-3    -.9829       0.3049E-3    -.9772   
    7.904       0.1755E-3    -.9829       0.3074E-3    -.9772   
    7.924       0.1767E-3    -.9828       0.3099E-3    -.9771   
    7.944       0.1780E-3    -.9828       0.3124E-3    -.9770   
    7.964       0.1792E-3    -.9828       0.3150E-3    -.9770   
    7.984       0.1804E-3    -.9827       0.3176E-3    -.9769   
    8.004       0.1817E-3    -.9827       0.3202E-3    -.9768   
    8.024       0.1830E-3    -.9827       0.3228E-3    -.9768   
    8.044       0.1842E-3    -.9826       0.3255E-3    -.9767   
    8.064       0.1855E-3    -.9826       0.3282E-3    -.9767   
    8.084       0.1869E-3    -.9825       0.3310E-3    -.9766   
    8.104       0.1882E-3    -.9825       0.3337E-3    -.9765   
    8.124       0.1895E-3    -.9825       0.3366E-3    -.9765   
    8.144       0.1908E-3    -.9824       0.3394E-3    -.9764   
    8.164       0.1922E-3    -.9824       0.3423E-3    -.9763   
    8.184       0.1936E-3    -.9823       0.3452E-3    -.9762   
    8.204       0.1950E-3    -.9823       0.3481E-3    -.9762   
    8.224       0.1964E-3    -.9823       0.3511E-3    -.9761   
    8.244       0.1978E-3    -.9822       0.3541E-3    -.9760   
    8.265       0.1992E-3    -.9822       0.3572E-3    -.9760   
    8.285       0.2006E-3    -.9822       0.3603E-3    -.9759   
    8.305       0.2021E-3    -.9821       0.3634E-3    -.9758   
    8.325       0.2036E-3    -.9821       0.3665E-3    -.9758   
    8.345       0.2050E-3    -.9820       0.3697E-3    -.9757   
    8.365       0.2065E-3    -.9820       0.3730E-3    -.9756   
    8.385       0.2081E-3    -.9819       0.3763E-3    -.9755   
    8.405       0.2096E-3    -.9819       0.3796E-3    -.9755   
    8.425       0.2111E-3    -.9819       0.3830E-3    -.9754   
    8.445       0.2127E-3    -.9818       0.3864E-3    -.9753   
    8.465       0.2143E-3    -.9818       0.3898E-3    -.9752   
    8.485       0.2159E-3    -.9817       0.3933E-3    -.9751   
    8.505       0.2175E-3    -.9817       0.3968E-3    -.9751   
    8.525       0.2191E-3    -.9816       0.4004E-3    -.9750   
    8.545       0.2207E-3    -.9816       0.4041E-3    -.9749   
    8.565       0.2224E-3    -.9816       0.4077E-3    -.9748   
    8.585       0.2241E-3    -.9815       0.4115E-3    -.9747   
    8.605       0.2258E-3    -.9815       0.4152E-3    -.9747   
    8.625       0.2275E-3    -.9814       0.4191E-3    -.9746   
    8.645       0.2292E-3    -.9814       0.4229E-3    -.9745   
    8.665       0.2310E-3    -.9813       0.4269E-3    -.9744   
    8.685       0.2327E-3    -.9813       0.4308E-3    -.9743   
    8.705       0.2345E-3    -.9812       0.4349E-3    -.9742   
    8.725       0.2363E-3    -.9812       0.4389E-3    -.9741   
    8.745       0.2382E-3    -.9811       0.4431E-3    -.9741   
    8.766       0.2400E-3    -.9811       0.4473E-3    -.9740   
    8.786       0.2419E-3    -.9810       0.4515E-3    -.9739   
    8.806       0.2438E-3    -.9810       0.4558E-3    -.9738   
    8.826       0.2457E-3    -.9810       0.4602E-3    -.9737   
    8.846       0.2476E-3    -.9809       0.4646E-3    -.9736   
    8.866       0.2496E-3    -.9809       0.4691E-3    -.9735   
    8.886       0.2515E-3    -.9808       0.4737E-3    -.9734   
    8.906       0.2535E-3    -.9808       0.4783E-3    -.9733   
    8.926       0.2555E-3    -.9807       0.4830E-3    -.9732   
    8.946       0.2576E-3    -.9806       0.4878E-3    -.9731   
    8.966       0.2597E-3    -.9806       0.4926E-3    -.9730   
    8.986       0.2617E-3    -.9805       0.4975E-3    -.9729   
    9.006       0.2639E-3    -.9805       0.5024E-3    -.9728   
    9.026       0.2660E-3    -.9804       0.5075E-3    -.9727   
    9.046       0.2682E-3    -.9804       0.5126E-3    -.9726   
    9.066       0.2704E-3    -.9803       0.5177E-3    -.9725   
    9.086       0.2726E-3    -.9803       0.5230E-3    -.9724   
    9.106       0.2748E-3    -.9802       0.5283E-3    -.9723   
    9.126       0.2771E-3    -.9802       0.5338E-3    -.9722   
    9.146       0.2794E-3    -.9801       0.5393E-3    -.9721   
    9.166       0.2817E-3    -.9801       0.5448E-3    -.9720   
    9.186       0.2841E-3    -.9800       0.5505E-3    -.9719   
    9.206       0.2864E-3    -.9799       0.5563E-3    -.9718   
    9.226       0.2888E-3    -.9799       0.5621E-3    -.9717   
    9.246       0.2913E-3    -.9798       0.5680E-3    -.9715   
    9.267       0.2938E-3    -.9798       0.5740E-3    -.9714   
    9.287       0.2963E-3    -.9797       0.5802E-3    -.9713   
    9.307       0.2988E-3    -.9796       0.5864E-3    -.9712   
    9.327       0.3014E-3    -.9796       0.5927E-3    -.9711   
    9.347       0.3039E-3    -.9795       0.5991E-3    -.9710   
    9.367       0.3066E-3    -.9795       0.6056E-3    -.9708   
    9.387       0.3092E-3    -.9794       0.6122E-3    -.9707   
    9.407       0.3119E-3    -.9793       0.6189E-3    -.9706   
    9.427       0.3147E-3    -.9793       0.6258E-3    -.9705   
    9.447       0.3174E-3    -.9792       0.6327E-3    -.9703   
    9.467       0.3202E-3    -.9792       0.6398E-3    -.9702   
    9.487       0.3231E-3    -.9791       0.6470E-3    -.9701   
    9.507       0.3260E-3    -.9790       0.6543E-3    -.9700   
    9.527       0.3289E-3    -.9790       0.6617E-3    -.9698   
    9.547       0.3318E-3    -.9789       0.6692E-3    -.9697   
    9.567       0.3348E-3    -.9788       0.6769E-3    -.9696   
    9.587       0.3378E-3    -.9788       0.6847E-3    -.9694   
    9.607       0.3409E-3    -.9787       0.6926E-3    -.9693   
    9.627       0.3440E-3    -.9786       0.7007E-3    -.9691   
    9.647       0.3472E-3    -.9786       0.7089E-3    -.9690   
    9.667       0.3504E-3    -.9785       0.7173E-3    -.9689   
    9.687       0.3536E-3    -.9784       0.7258E-3    -.9687   
    9.707       0.3569E-3    -.9783       0.7345E-3    -.9686   
    9.727       0.3603E-3    -.9783       0.7433E-3    -.9684   
    9.747       0.3637E-3    -.9782       0.7522E-3    -.9683   
    9.768       0.3671E-3    -.9781       0.7614E-3    -.9681   
    9.788       0.3706E-3    -.9781       0.7707E-3    -.9680   
    9.808       0.3741E-3    -.9780       0.7801E-3    -.9678   
    9.828       0.3777E-3    -.9779       0.7898E-3    -.9677   
    9.848       0.3813E-3    -.9778       0.7996E-3    -.9675   
    9.868       0.3850E-3    -.9777       0.8096E-3    -.9673   
    9.888       0.3888E-3    -.9777       0.8198E-3    -.9672   
    9.908       0.3926E-3    -.9776       0.8302E-3    -.9670   
    9.928       0.3964E-3    -.9775       0.8408E-3    -.9668   
    9.948       0.4003E-3    -.9774       0.8516E-3    -.9667   
    9.968       0.4043E-3    -.9774       0.8626E-3    -.9665   
    9.988       0.4083E-3    -.9773       0.8738E-3    -.9663   
    10.01       0.4124E-3    -.9772       0.8852E-3    -.9662   
    10.03       0.4166E-3    -.9771       0.8969E-3    -.9660   
    10.05       0.4208E-3    -.9770       0.9088E-3    -.9658   
    10.07       0.4251E-3    -.9769       0.9209E-3    -.9656   
    10.09       0.4294E-3    -.9769       0.9333E-3    -.9654   
    10.11       0.4338E-3    -.9768       0.9459E-3    -.9652   
    10.13       0.4383E-3    -.9767       0.9588E-3    -.9650   
    10.15       0.4429E-3    -.9766       0.9720E-3    -.9649   
    10.17       0.4475E-3    -.9765       0.9854E-3    -.9647   
    10.19       0.4522E-3    -.9764       0.9991E-3    -.9645   
    10.21       0.4570E-3    -.9763       0.1013E-2    -.9643   
    10.23       0.4619E-3    -.9762       0.1027E-2    -.9641   
    10.25       0.4668E-3    -.9761       0.1042E-2    -.9638   
    10.27       0.4718E-3    -.9760       0.1057E-2    -.9636   
    10.29       0.4769E-3    -.9759       0.1072E-2    -.9634   
    10.31       0.4821E-3    -.9759       0.1088E-2    -.9632   
    10.33       0.4874E-3    -.9758       0.1104E-2    -.9630   
    10.35       0.4928E-3    -.9757       0.1120E-2    -.9628   
    10.37       0.4982E-3    -.9756       0.1137E-2    -.9625   
    10.39       0.5038E-3    -.9755       0.1154E-2    -.9623   
    10.41       0.5094E-3    -.9754       0.1171E-2    -.9621   
    10.43       0.5152E-3    -.9753       0.1189E-2    -.9618   
    10.45       0.5210E-3    -.9751       0.1207E-2    -.9616   
    10.47       0.5270E-3    -.9750       0.1226E-2    -.9614   
    10.49       0.5330E-3    -.9749       0.1245E-2    -.9611   
    10.51       0.5392E-3    -.9748       0.1264E-2    -.9609   
    10.53       0.5455E-3    -.9747       0.1284E-2    -.9606   
    10.55       0.5519E-3    -.9746       0.1305E-2    -.9604   
    10.57       0.5584E-3    -.9745       0.1326E-2    -.9601   
    10.59       0.5650E-3    -.9744       0.1347E-2    -.9598   
    10.61       0.5718E-3    -.9743       0.1369E-2    -.9596   
    10.63       0.5787E-3    -.9742       0.1392E-2    -.9593   
    10.65       0.5857E-3    -.9740       0.1415E-2    -.9590   
    10.67       0.5928E-3    -.9739       0.1439E-2    -.9587   
    10.69       0.6001E-3    -.9738       0.1463E-2    -.9584   
    10.71       0.6076E-3    -.9737       0.1488E-2    -.9581   
    10.73       0.6151E-3    -.9736       0.1514E-2    -.9578   
    10.75       0.6229E-3    -.9734       0.1541E-2    -.9575   
    10.77       0.6307E-3    -.9733       0.1568E-2    -.9572   
    10.79       0.6388E-3    -.9732       0.1595E-2    -.9569   
    10.81       0.6470E-3    -.9731       0.1624E-2    -.9566   
    10.83       0.6553E-3    -.9729       0.1653E-2    -.9562   
    10.85       0.6639E-3    -.9728       0.1684E-2    -.9559   
    10.87       0.6726E-3    -.9727       0.1715E-2    -.9556   
    10.89       0.6815E-3    -.9725       0.1746E-2    -.9552   
    10.91       0.6905E-3    -.9724       0.1779E-2    -.9549   
    10.93       0.6998E-3    -.9723       0.1813E-2    -.9545   
    10.95       0.7093E-3    -.9721       0.1848E-2    -.9542   
    10.97       0.7190E-3    -.9720       0.1884E-2    -.9538   
    10.99       0.7288E-3    -.9718       0.1920E-2    -.9534   
    11.01       0.7389E-3    -.9717       0.1958E-2    -.9530   
    11.03       0.7493E-3    -.9715       0.1998E-2    -.9526   
    11.05       0.7598E-3    -.9714       0.2038E-2    -.9522   
    11.07       0.7706E-3    -.9712       0.2080E-2    -.9518   
    11.09       0.7817E-3    -.9711       0.2123E-2    -.9514   
    11.11       0.7930E-3    -.9709       0.2167E-2    -.9510   
    11.13       0.8045E-3    -.9708       0.2213E-2    -.9505   
    11.15       0.8164E-3    -.9706       0.2260E-2    -.9501   
    11.17       0.8285E-3    -.9704       0.2309E-2    -.9496   
    11.19       0.8409E-3    -.9703       0.2359E-2    -.9492   
    11.21       0.8536E-3    -.9701       0.2411E-2    -.9487   
    11.23       0.8666E-3    -.9699       0.2465E-2    -.9482   
    11.25       0.8799E-3    -.9697       0.2521E-2    -.9477   
    11.27       0.8935E-3    -.9696       0.2579E-2    -.9472   
    11.29       0.9075E-3    -.9694       0.2639E-2    -.9467   
    11.31       0.9219E-3    -.9692       0.2701E-2    -.9461   
    11.33       0.9366E-3    -.9690       0.2765E-2    -.9456   
    11.35       0.9517E-3    -.9688       0.2832E-2    -.9450   
    11.37       0.9672E-3    -.9686       0.2901E-2    -.9445   
    11.39       0.9831E-3    -.9684       0.2973E-2    -.9439   
    11.41       0.9995E-3    -.9682       0.3047E-2    -.9433   
    11.43       0.1016E-2    -.9680       0.3125E-2    -.9427   
    11.45       0.1033E-2    -.9678       0.3205E-2    -.9421   
    11.47       0.1051E-2    -.9676       0.3289E-2    -.9414   
    11.49       0.1069E-2    -.9674       0.3376E-2    -.9407   
    11.51       0.1088E-2    -.9672       0.3467E-2    -.9401   
    11.53       0.1107E-2    -.9670       0.3561E-2    -.9394   
    11.55       0.1127E-2    -.9668       0.3660E-2    -.9387   
    11.57       0.1148E-2    -.9665       0.3763E-2    -.9379   
    11.59       0.1168E-2    -.9663       0.3870E-2    -.9372   
    11.61       0.1190E-2    -.9661       0.3982E-2    -.9364   
    11.63       0.1212E-2    -.9658       0.4100E-2    -.9356   
