#                                                           
# :::   :::   :::     ::::    ::::  :::::::::   ::::::::    
# :+:   :+: :+: :+:   +:+:+: :+:+:+ :+:    :+: :+:    :+:   
#  +:+ +:+ +:+   +:+  +:+ +:+:+ +:+ +:+    +:+ +:+    +:+   
#   +#++: +#++:++#++: +#+  +:+  +#+ +#++:++#+  +#+    +:+   
#    +#+  +#+     +#+ +#+       +#+ +#+    +#+ +#+    +#+   
#    #+#  #+#     #+# #+#       #+# #+#    #+# #+#    #+#   
#    ###  ###     ### ###       ### #########   ########    
#                                                           
#                                                           
#        Version 4.3.0 Revision 15652 Hash 9dc5f79          
#                  MPI+SLK+OpenMP Build                     
#                http://www.yambo-code.org                  
#
# Absorption @ Q(1) [q->0 direction] : 1.0000000  0.0000000  0.0000000
#
#
# - Energies      are Perdew, Burke & Ernzerhof(X)+Perdew, Burke & Ernzerhof(C)
# - Wavefunctions are Perdew, Burke & Ernzerhof(X)+Perdew, Burke & Ernzerhof(C)
#
# - The Green`s function is Retarded -
# - Using the Length Gauge -
# - [r,Vnl] *is* included -
#
#    E/ev[1]       EPS-Im[2]     EPS-Re[3]     EPSo-Im[4]    EPSo-Re[5]
#
   0.20000        39.944        266.93        40.797        269.64   
   0.20160        40.462        267.41        41.330        270.13   
   0.20321        40.994        267.91        41.870        270.63   
   0.20481        41.528        268.40        42.416        271.14   
   0.20641        42.068        268.90        42.969        271.65   
   0.20802        42.615        269.41        43.529        272.17   
   0.20962        43.174        269.94        44.096        272.69   
   0.21122        43.731        270.43        44.669        273.21   
   0.21283        44.303        270.96        45.251        273.74   
   0.21443        44.879        271.49        45.839        274.28   
   0.21603        45.460        272.00        46.435        274.82   
   0.21764        46.052        272.55        47.039        275.37   
   0.21924        46.650        273.08        47.651        275.92   
   0.22084        47.254        273.61        48.270        276.48   
   0.22244        47.872        274.18        48.898        277.04   
   0.22405        48.484        274.71        49.534        277.61   
   0.22565        49.125        275.30        50.179        278.18   
   0.22725        49.767        275.86        50.832        278.75   
   0.22886        50.410        276.43        51.494        279.34   
   0.23046        51.070        277.00        52.165        279.92   
   0.23206        51.731        277.57        52.846        280.51   
   0.23367        52.410        278.17        53.535        281.11   
   0.23527        53.088        278.74        54.234        281.71   
   0.23687        53.785        279.34        54.943        282.32   
   0.23848        54.488        279.93        55.662        282.93   
   0.24008        55.203        280.55        56.390        283.55   
   0.24168        55.920        281.13        57.129        284.17   
   0.24329        56.654        281.74        57.879        284.79   
   0.24489        57.398        282.36        58.639        285.42   
   0.24649        58.156        283.00        59.410        286.06   
   0.24810        58.923        283.62        60.192        286.70   
   0.24970        59.694        284.24        60.986        287.35   
   0.25130        60.484        284.86        61.791        287.99   
   0.25291        61.283        285.52        62.608        288.65   
   0.25451        62.091        286.15        63.437        289.31   
   0.25611        62.915        286.81        64.278        289.97   
   0.25772        63.754        287.45        65.132        290.64   
   0.25932        64.595        288.10        65.998        291.31   
   0.26092        65.460        288.77        66.877        291.98   
   0.26253        66.342        289.44        67.769        292.66   
   0.26413        67.220        290.09        68.675        293.34   
   0.26573        68.119        290.75        69.595        294.03   
   0.26733        69.030        291.41        70.528        294.72   
   0.26894        69.954        292.10        71.476        295.42   
   0.27054        70.901        292.79        72.438        296.11   
   0.27214        71.852        293.45        73.415        296.81   
   0.27375        72.826        294.16        74.406        297.52   
   0.27535        73.811        294.85        75.414        298.22   
   0.27695        74.818        295.55        76.436        298.93   
   0.27856        75.828        296.21        77.475        299.65   
   0.28016        76.867        296.93        78.529        300.36   
   0.28176        77.913        297.63        79.600        301.08   
   0.28337        78.974        298.31        80.687        301.80   
   0.28497        80.053        299.01        81.792        302.52   
   0.28657        81.152        299.72        82.914        303.24   
   0.28818        82.264        300.41        84.053        303.96   
   0.28978        83.390        301.09        85.210        304.69   
   0.29138        84.546        301.81        86.385        305.41   
   0.29299        85.713        302.53        87.578        306.14   
   0.29459        86.904        303.24        88.790        306.86   
   0.29619        88.103        303.92        90.021        307.59   
   0.29780        89.321        304.63        91.271        308.31   
   0.29940        90.571        305.33        92.541        309.04   
   0.30100        91.829        306.03        93.830        309.76   
   0.30261        93.112        306.73        95.139        310.48   
   0.30421        94.402        307.42        96.469        311.20   
   0.30581        95.729        308.12        97.819        311.92   
   0.30741        97.062        308.80        99.189        312.64   
   0.30902        98.421        309.49        100.58        313.35   
   0.31062        99.818        310.18        101.99        314.06   
   0.31222        101.21        310.85        103.43        314.76   
   0.31383        102.63        311.51        104.88        315.46   
   0.31543        104.08        312.20        106.36        316.16   
      0.31703     105.54286     312.84445     107.86201     316.84778
      0.31864     107.02020     313.49411     109.38405     317.53119
      0.32024     108.53729     314.15088     110.92834     318.20776
      0.32184     110.06983     314.79202     112.49509     318.87726
      0.32345     111.60889     315.40704     114.08441     319.53903
      0.32505     113.18079     316.01691     115.69634     320.19223
      0.32665     114.77409     316.63980     117.33085     320.83649
      0.32826     116.40787     317.24225     118.98822     321.47104
      0.32986     118.04134     317.84042     120.66849     322.09537
      0.33146     119.70873     318.42276     122.37130     322.70868
      0.33307     121.38351     319.00296     124.09691     323.31033
      0.33467     123.09918     319.56024     125.84521     323.89990
      0.33627     124.81696     320.09106     127.61589     324.47638
      0.33788     126.57821     320.63342     129.40903     325.03912
      0.33948     128.32034     321.10965     131.22441     325.58755
      0.34108     130.12439     321.62851     133.06181     326.12085
      0.34269     131.95200     322.13843     134.92085     326.63843
      0.34429     133.75568     322.57349     136.80144     327.13962
      0.34589     135.61203     323.01987     138.70309     327.62369
      0.34749     137.48112     323.44519     140.62544     328.08987
      0.34910     139.35492     323.84659     142.56816     328.53751
      0.35070     141.27010     324.22748     144.53078     328.96600
      0.35230     143.19742     324.59683     146.51277     329.37476
      0.35391     145.14374     324.95810     148.51347     329.76300
      0.35551     147.07855     325.25381     150.53242     330.13028
      0.35711     149.07803     325.58011     152.56889     330.47598
      0.35872     151.05405     325.84036     154.62231     330.79953
      0.36032     153.05573     326.10580     156.69185     331.10043
      0.36192     155.07837     326.34586     158.77681     331.37848
      0.36353     157.09937     326.55020     160.87628     331.63293
      0.36513     159.13110     326.72714     162.98950     331.86356
      0.36673     161.18811     326.88278     165.11563     332.07034
      0.36834     163.24773     327.03317     167.25354     332.25247
      0.36994     165.32899     327.13928     169.40260     332.41040
      0.37154     167.38451     327.20956     171.56166     332.54346
      0.37315     169.46837     327.27850     173.72974     332.65216
      0.37475     171.56244     327.31537     175.90594     332.73611
      0.37635     173.64857     327.33109     178.08931     332.79572
      0.37796     175.74382     327.31424     180.27859     332.83115
      0.37956     177.85785     327.27887     182.47308     332.84265
      0.38116     179.94511     327.20309     184.67172     332.83066
      0.38277     182.06223     327.13660     186.87346     332.79547
      0.38437     184.16521     327.02356     189.07750     332.73804
      0.38597     186.23694     326.87399     191.28288     332.65869
      0.38758     188.34886     326.74911     193.48877     332.55829
      0.38918     190.41805     326.57291     195.69441     332.43759
      0.39078     192.49640     326.35498     197.89908     332.29761
      0.39238     194.57213     326.16940     200.10216     332.13922
      0.39399     196.65480     325.92688     202.30298     331.96362
      0.39559     198.72392     325.70193     204.50111     331.77197
      0.39719     200.76848     325.44092     206.69624     331.56528
      0.39880     202.83394     325.16864     208.88795     331.34494
      0.40040     204.86778     324.89291     211.07619     331.11224
      0.40200     206.91965     324.61243     213.26097     330.86865
      0.40361     208.92889     324.31091     215.44212     330.61551
      0.40521     210.95909     323.99811     217.62013     330.35431
      0.40681     212.99475     323.70984     219.79521     330.08621
      0.40842     214.97871     323.37619     221.96779     329.81293
      0.41002     216.97627     323.07281     224.13843     329.53580
      0.41162     218.97873     322.75156     226.30814     329.25613
      0.41323     220.97726     322.45984     228.47755     328.97546
      0.41483     222.93221     322.12457     230.64781     328.69501
      0.41643     224.90742     321.83545     232.82014     328.41611
      0.41804     226.89099     321.52078     234.99557     328.14008
      0.41964     228.88199     321.23877     237.17586     327.86780
      0.42124     230.85320     320.95749     239.36244     327.60059
      0.42285     232.87215     320.68192     241.55701     327.33932
      0.42445     234.83136     320.41086     243.76144     327.08466
      0.42605     236.80128     320.14072     245.97746     326.83759
      0.42766     238.83142     319.90610     248.20717     326.59863
      0.42926     240.84097     319.68329     250.45277     326.36819
      0.43086     242.84160     319.46783     252.71619     326.14670
      0.43246     244.85394     319.25888     254.99992     325.93439
      0.43407     246.92615     319.06592     257.30624     325.73120
      0.43567     249.02293     318.91470     259.63739     325.53693
      0.43727     251.10980     318.74619     261.99594     325.35144
      0.43888     253.23882     318.59637     264.38422     325.17432
      0.44048     255.38539     318.49011     266.80481     325.00488
      0.44208     257.57269     318.37482     269.26019     324.84238
      0.44369     259.76807     318.26199     271.75284     324.68582
      0.44529     262.04788     318.18542     274.28516     324.53400
      0.44689     264.27872     318.09543     276.85974     324.38611
      0.44850     266.61774     318.04065     279.47900     324.24005
      0.45010     268.97269     317.96469     282.14536     324.09464
      0.45170     271.37411     317.93936     284.86108     323.94785
      0.45331     273.80475     317.88397     287.62878     323.79794
      0.45491     276.34241     317.85190     290.45053     323.64258
      0.45651     278.89783     317.80856     293.32849     323.47980
      0.45812     281.50272     317.76108     296.26495     323.30670
      0.45972     284.16864     317.71353     299.26193     323.12109
      0.46132     286.88599     317.66730     302.32129     322.92004
      0.46293     289.67776     317.62741     305.44504     322.70056
      0.46453     292.55014     317.54379     308.63480     322.45990
      0.46613     295.44073     317.51297     311.89233     322.19455
      0.46774     298.43845     317.41675     315.21902     321.90134
      0.46934     301.43829     317.31259     318.61646     321.57672
      0.47094     304.57928     317.18234     322.08578     321.21722
      0.47255     307.72504     317.02380     325.62808     320.81866
      0.47415     311.00400     316.84625     329.24475     320.37772
      0.47575     314.36041     316.61517     332.93628     319.88983
      0.47735     317.73541     316.38660     336.70331     319.35129
      0.47896     321.26178     316.08679     340.54645     318.75751
      0.48056     324.79678     315.77292     344.46625     318.10434
      0.48216     328.44891     315.37097     348.46249     317.38715
      0.48377     332.14838     314.96127     352.53552     316.60129
      0.48537     335.95609     314.48441     356.68475     315.74228
      0.48697     339.82343     313.95120     360.90982     314.80493
      0.48858     343.77676     313.36142     365.21002     313.78470
      0.49018     347.81393     312.68155     369.58466     312.67624
      0.49178     351.91336     311.94995     374.03232     311.47488
      0.49339     356.09323     311.09573     378.55157     310.17535
      0.49499     360.37704     310.19107     383.14102     308.77213
      0.49659     364.70834     309.21054     387.79831     307.26016
      0.49820     369.12704     308.06729     392.52151     305.63431
      0.49980     373.60617     306.92230     397.30801     303.88898
      0.50140     378.15634     305.60654     402.15512     302.01883
      0.50301     382.78033     304.20776     407.05930     300.01874
      0.50461     387.45844     302.70160     412.01746     297.88303
      0.50621     392.27536     301.06946     417.02554     295.60672
      0.50782     397.04993     299.31088     422.07944     293.18430
      0.50942     401.90720     297.44693     427.17459     290.61090
      0.51102     406.89355     295.42114     432.30624     287.88098
      0.51263     411.84616     293.22467     437.46893     284.98962
      0.51423     416.85086     290.97717     442.65714     281.93225
      0.51583     421.99921     288.51996     447.86496     278.70407
      0.51743     427.10202     285.88739     453.08582     275.30042
      0.51904     432.28107     283.13812     458.31281     271.71716
      0.52064     437.45737     280.17307     463.53906     267.95001
      0.52224     442.62814     277.07538     468.75696     263.99542
      0.52385     447.83911     273.79645     473.95847     259.85010
      0.52545     453.07999     270.32144     479.13513     255.51044
      0.52705     458.29922     266.73505     484.27908     250.97408
      0.52866     463.51202     262.86911     489.38025     246.23877
      0.53026     468.73874     258.86737     494.43005     241.30214
      0.53186     473.92743     254.65219     499.41888     236.16319
      0.53347     479.03647     250.26688     504.33661     230.82104
      0.53507     484.19733     245.63533     509.17310     225.27519
      0.53667     489.29382     240.84190     513.91821     219.52577
      0.53828     494.29880     235.88982     518.56134     213.57367
      0.53988     499.26248     230.57021     523.09155     207.42062
      0.54148     504.05765     225.24886     527.49847     201.06833
      0.54309     508.94089     219.51106     531.77106     194.51959
      0.54469     513.59521     213.74985     535.89825     187.77824
      0.54629     518.17572     207.74141     539.86963     180.84804
      0.54790     522.65631     201.49751     543.67438     173.73415
      0.54950     526.94556     195.12453     547.30176     166.44221
      0.55110     531.14105     188.49611     550.74176     158.97829
   0.55271        535.23        181.66        553.98        151.35   
   0.55431        539.07        174.71        557.02        143.56   
   0.55591        542.78        167.52        559.84        135.63   
   0.55752        546.31        160.15        562.43        127.56   
   0.55912        549.64        152.64        564.79        119.35   
   0.56072        552.76        144.97        566.90        111.03   
   0.56232        555.68        137.09        568.77        102.60   
   0.56393        558.37        129.17        570.38        94.075   
   0.56553        560.83        121.10        571.73        85.464   
   0.56713        563.06        112.82        572.81        76.781   
   0.56874        565.02        104.54        573.62        68.038   
   0.57034        566.75        96.054        574.15        59.249   
   0.57194        568.21        87.552        574.41        50.427   
   0.57355        569.43        78.930        574.39        41.586   
      0.57515     570.35693      70.25214     574.08527      32.73854
      0.57675     571.02655      61.47885     573.50183      23.89982
      0.57836     571.40863      52.73819     572.63873      15.08246
      0.57996     571.50439      44.02354     571.49725       6.30029
      0.58156     571.33679      35.23298     570.08026      -2.43302
      0.58317     570.88934      26.37847     568.39111     -11.10491
      0.58477     570.15356      17.57132     566.43390     -19.70228
      0.58637     569.14594       8.78703     564.21368     -28.21239
   0.58798        567.86       0.15376        561.74       -36.624   
      0.58958     566.29852      -8.52716     559.00787     -44.92452
      0.59118     564.47833     -17.10866     556.03564     -53.10340
      0.59279     562.38416     -25.65363     552.82733     -61.15053
      0.59439     560.03973     -34.07521     549.39124     -69.05566
      0.59599     557.43243     -42.28460     545.73584     -76.80968
      0.59760     554.58649     -50.49931     541.87073     -84.40374
      0.59920     551.50269     -58.55701     537.80524     -91.83056
      0.60080     548.17926     -66.52039     533.54926     -99.08260
      0.60240     544.65045     -74.31138     529.11304    -106.15336
      0.60401     540.89661     -81.91404     524.50659    -113.03732
      0.60561     536.93408     -89.35887     519.74084    -119.72955
      0.60721     532.78827     -96.68118     514.82648    -126.22523
      0.60882     528.45282    -103.79395     509.77356    -132.52130
      0.61042     523.93683    -110.72746     504.59305    -138.61465
      0.61202     519.29224    -117.42066     499.29575    -144.50270
      0.61363     514.48505    -123.92444     493.89151    -150.18436
      0.61523     509.45383    -130.34480     488.39105    -155.65814
      0.61683     504.39191    -136.47600     482.80435    -160.92392
      0.61844     499.17230    -142.42902     477.14194    -165.98154
      0.62004     493.81268    -148.20305     471.41278    -170.83186
      0.62164     488.39081    -153.72664     465.62604    -175.47606
      0.62325     482.85327    -159.03233     459.79160    -179.91537
      0.62485     477.27261    -164.12723     453.91779    -184.15236
      0.62645     471.60559    -169.04965     448.01312    -188.18912
      0.62806     465.84674    -173.78647     442.08591    -192.02850
