#                                                                     
#  __  __   ________   ___ __ __    _______   ______                  
# /_/\/_/\ /_______/\ /__//_//_/\ /_______/\ /_____/\                 
# \ \ \ \ \\::: _  \ \\::\| \| \ \\::: _  \ \\:::_ \ \                
#  \:\_\ \ \\::(_)  \ \\:.      \ \\::(_)  \/_\:\ \ \ \               
#   \::::_\/ \:: __  \ \\:.\-/\  \ \\::  _  \ \\:\ \ \ \              
#     \::\ \  \:.\ \  \ \\. \  \  \ \\::(_)  \ \\:\_\ \ \             
#      \__\/   \__\/\__\/ \__\/ \__\/ \_______\/ \_____\/             
#                                                                     
#                                                                     
# Version 5.3.0 Revision 23897 Hash (prev commit) 1ec507d413          
#                 Branch is phys-magnons                              
#         MPI+OpenMP+SLK+SLEPC+HDF5_MPI_IO Build                      
#                http://www.yambo-code.eu                             
#
# Joint Density of states @ Q(1):   0.00000000      1.00000000      0.00000000    [q->0 direction]
#
# [GEN] GF Energies                               : Perdew, Burke & Ernzerhof(X)+Perdew, Burke & Ernzerhof(C)
# [GEN] Green`s Function                          : Resonant
#
# [GEN] Gauge                                     : Length
# [GEN] [r,Vnl] included                          : yes
#
# DIP band range                                  :   2   6
# DIP band range limits                           :   6   2
# DIP e/h energy range                            :  -1.00000000     -1.00000000    [eV]
# RL vectors in the sum                           :   603
# [r,Vnl] included                                : yes
# Bands ordered                                   : no
# Direct v evaluation                             : no
# Approach used                                   : G-space v
# Dipoles computed                                : R V P [G-space]  M_spin
# Wavefunctions                                   : Perdew, Burke & Ernzerhof(X)+Perdew, Burke & Ernzerhof(C)
#
#
# [K] Identifier                                  :   3898
# [K] Dimension                                   :   894
# [K] Bands                                       :   2   6
# [K] Exchange res                                : no
# [K] Correlation res                             : no
# [K] Kernel`s coupling                           : no
# [K] Exchange cpl                                : no
# [K] Correlation cpl                             : no
# [K] W interaction is bare                       : no
# [K] ALDA kernel in R-space                      : yes
# [K] E/h energy range                            :  -1.00000000     -1.00000000    [eV]
# [K] Coupling range                              :   100.000000      100.000000    [o/o]
# [X] Response Kind                               : BAR
#
#
#    E[1] [eV]          Im(jdos)           Re(jdos)           Im(jdos_o)         Re(jdos_o)
#
       -2.000000           0.231492           10.96404           0.212081           10.82560
       -1.996000           0.232081           10.97327           0.212439           10.83406
       -1.992000           0.232676           10.98251           0.212798           10.84256
       -1.988000           0.233276           10.99179           0.213158           10.85108
       -1.984000           0.233882           11.00108           0.213519           10.85960
       -1.980000           0.234493           11.01039           0.213880           10.86813
       -1.976000           0.235111           11.01973           0.214242           10.87671
       -1.972000           0.235734           11.02909           0.214606           10.88524
       -1.968000           0.236363           11.03849           0.214971           10.89384
       -1.964000           0.236999           11.04791           0.215336           10.90244
       -1.960000           0.237641           11.05733           0.215703           10.91104
       -1.956000           0.238289           11.06679           0.216070           10.91969
       -1.952000           0.238945           11.07628           0.216439           10.92831
       -1.948000           0.239606           11.08580           0.216808           10.93699
       -1.944000           0.240276           11.09534           0.217178           10.94567
       -1.940000           0.240952           11.10490           0.217551           10.95433
       -1.936000           0.241635           11.11448           0.217923           10.96305
       -1.932000           0.242326           11.12409           0.218296           10.97177
       -1.928000           0.243025           11.13375           0.218671           10.98045
       -1.924000           0.243731           11.14341           0.219048           10.98923
       -1.920000           0.244446           11.15311           0.219424           10.99802
       -1.916000           0.245170           11.16282           0.219801           11.00675
       -1.912000           0.245900           11.17256           0.220180           11.01557
       -1.908000           0.246641           11.18233           0.220560           11.02436
       -1.904000           0.247391           11.19213           0.220941           11.03316
       -1.900000           0.248148           11.20197           0.221323           11.04199
       -1.896000           0.248916           11.21182           0.221706           11.05085
       -1.892000           0.249694           11.22172           0.222090           11.05976
       -1.888000           0.250482           11.23162           0.222475           11.06860
       -1.884000           0.251279           11.24158           0.222862           11.07751
       -1.880000           0.252087           11.25154           0.223248           11.08641
       -1.876000           0.252907           11.26156           0.223637           11.09536
       -1.872000           0.253737           11.27158           0.224026           11.10432
       -1.868000           0.254578           11.28164           0.224416           11.11327
       -1.864000           0.255432           11.29173           0.224808           11.12225
       -1.860000           0.256297           11.30187           0.225201           11.13117
       -1.856000           0.257175           11.31203           0.225595           11.14024
       -1.852000           0.258066           11.32222           0.225990           11.14927
       -1.848000           0.258970           11.33244           0.226386           11.15832
       -1.844000           0.259888           11.34270           0.226783           11.16736
       -1.840000           0.260819           11.35299           0.227182           11.17642
       -1.836000           0.261765           11.36329           0.227580           11.18551
       -1.832000           0.262726           11.37366           0.227981           11.19461
       -1.828000           0.263703           11.38406           0.228383           11.20376
       -1.824000           0.264695           11.39448           0.228786           11.21288
       -1.820000           0.265703           11.40493           0.229189           11.22201
       -1.816000           0.266729           11.41543           0.229595           11.23121
       -1.812000           0.267772           11.42596           0.230001           11.24038
       -1.808000           0.268833           11.43653           0.230408           11.24954
       -1.804000           0.269912           11.44713           0.230817           11.25879
       -1.800000           0.271011           11.45778           0.231226           11.26799
       -1.796000           0.272130           11.46847           0.231638           11.27729
       -1.792000           0.273269           11.47918           0.232049           11.28652
       -1.788000           0.274429           11.48994           0.232462           11.29579
       -1.784000           0.275612           11.50074           0.232877           11.30510
       -1.780000           0.276817           11.51158           0.233293           11.31441
       -1.776000           0.278046           11.52245           0.233709           11.32376
       -1.772000           0.279299           11.53339           0.234128           11.33307
       -1.768000           0.280578           11.54433           0.234547           11.34244
       -1.764000           0.281883           11.55536           0.234967           11.35184
       -1.760000           0.283216           11.56641           0.235389           11.36119
       -1.756000           0.284575           11.57751           0.235812           11.37066
       -1.752000           0.285965           11.58864           0.236237           11.38010
       -1.748000           0.287386           11.59981           0.236661           11.38955
       -1.744000           0.288837           11.61104           0.237089           11.39898
       -1.740000           0.290321           11.62232           0.237516           11.40848
       -1.736000           0.291840           11.63363           0.237944           11.41795
       -1.732000           0.293394           11.64503           0.238375           11.42745
       -1.728000           0.294985           11.65643           0.238807           11.43699
       -1.724000           0.296614           11.66792           0.239239           11.44657
       -1.720000           0.298283           11.67941           0.239673           11.45611
       -1.716000           0.299993           11.69098           0.240108           11.46574
       -1.712000           0.301747           11.70259           0.240546           11.47533
       -1.708000           0.303545           11.71429           0.240983           11.48497
       -1.704000           0.305390           11.72600           0.241423           11.49458
       -1.700000           0.307285           11.73779           0.241864           11.50422
       -1.696000           0.309230           11.74962           0.242305           11.51391
       -1.692000           0.311229           11.76150           0.242748           11.52357
       -1.688000           0.313284           11.77346           0.243193           11.53335
       -1.684000           0.315396           11.78546           0.243638           11.54302
       -1.680000           0.317569           11.79751           0.244086           11.55278
       -1.676000           0.319806           11.80962           0.244533           11.56255
       -1.672000           0.322108           11.82182           0.244983           11.57230
       -1.668000           0.324480           11.83405           0.245434           11.58210
       -1.664000           0.326924           11.84636           0.245886           11.59189
       -1.660000           0.329444           11.85872           0.246340           11.60175
       -1.656000           0.332044           11.87111           0.246796           11.61162
       -1.652000           0.334727           11.88362           0.247252           11.62150
       -1.648000           0.337497           11.89615           0.247709           11.63138
       -1.644000           0.340358           11.90880           0.248168           11.64130
       -1.640000           0.343316           11.92147           0.248628           11.65121
       -1.636000           0.346375           11.93419           0.249091           11.66112
       -1.632000           0.349538           11.94702           0.249554           11.67105
       -1.628000           0.352813           11.95989           0.250019           11.68107
       -1.624000           0.356204           11.97280           0.250485           11.69104
       -1.620000           0.359718           11.98583           0.250953           11.70107
       -1.616000           0.363361           11.99889           0.251422           11.71118
       -1.612000           0.367139           12.01200           0.251892           11.72122
       -1.608000           0.371059           12.02520           0.252364           11.73127
       -1.604000           0.375128           12.03844           0.252837           11.74136
       -1.600000           0.379356           12.05177           0.253312           11.75147
       -1.596000           0.383750           12.06515           0.253787           11.76160
       -1.592000           0.388319           12.07858           0.254266           11.77175
       -1.588000           0.393072           12.09206           0.254744           11.78195
       -1.584000           0.398018           12.10561           0.255224           11.79214
       -1.580000           0.403168           12.11921           0.255706           11.80232
       -1.576000           0.408534           12.13286           0.256190           11.81255
       -1.572000           0.414127           12.14651           0.256674           11.82278
       -1.568000           0.419956           12.16022           0.257160           11.83302
       -1.564000           0.426040           12.17399           0.257648           11.84335
       -1.560000           0.432388           12.18774           0.258137           11.85365
       -1.556000           0.439015           12.20154           0.258629           11.86397
       -1.552000           0.445936           12.21532           0.259121           11.87432
       -1.548000           0.453165           12.22910           0.259615           11.88466
       -1.544000           0.460719           12.24287           0.260111           11.89503
       -1.540000           0.468615           12.25659           0.260607           11.90548
       -1.536000           0.476870           12.27028           0.261106           11.91584
       -1.532000           0.485500           12.28390           0.261605           11.92634
       -1.528000           0.494522           12.29742           0.262108           11.93675
       -1.524000           0.503959           12.31086           0.262610           11.94723
       -1.520000           0.513825           12.32417           0.263115           11.95778
       -1.516000           0.524138           12.33727           0.263622           11.96825
       -1.512000           0.534916           12.35021           0.264129           11.97879
       -1.508000           0.546176           12.36290           0.264640           11.98939
       -1.504000           0.557935           12.37536           0.265150           11.99994
       -1.500000           0.570202           12.38746           0.265662           12.01055
       -1.496000           0.582993           12.39924           0.266177           12.02116
       -1.492000           0.596316           12.41058           0.266693           12.03183
       -1.488000           0.610178           12.42146           0.267211           12.04247
       -1.484000           0.624577           12.43176           0.267729           12.05317
       -1.480000           0.639507           12.44148           0.268249           12.06385
       -1.476000           0.654961           12.45053           0.268773           12.07460
       -1.472000           0.670915           12.45883           0.269296           12.08536
       -1.468000           0.687345           12.46627           0.269822           12.09611
       -1.464000           0.704210           12.47278           0.270349           12.10688
       -1.460000           0.721454           12.47828           0.270879           12.11770
       -1.456000           0.739020           12.48266           0.271410           12.12859
       -1.452000           0.756822           12.48589           0.271942           12.13943
       -1.448000           0.774767           12.48783           0.272477           12.15030
       -1.444000           0.792741           12.48840           0.273012           12.16116
       -1.440000           0.810615           12.48755           0.273550           12.17208
       -1.436000           0.828239           12.48519           0.274088           12.18301
       -1.432000           0.845454           12.48136           0.274631           12.19396
       -1.428000           0.862080           12.47596           0.275172           12.20496
       -1.424000           0.877924           12.46905           0.275717           12.21594
       -1.420000           0.892795           12.46062           0.276264           12.22703
       -1.416000           0.906494           12.45076           0.276812           12.23802
       -1.412000           0.918818           12.43955           0.277361           12.24910
       -1.408000           0.929583           12.42714           0.277913           12.26024
       -1.404000           0.938615           12.41368           0.278467           12.27131
       -1.400000           0.945772           12.39936           0.279022           12.28247
       -1.396000           0.950925           12.38440           0.279579           12.29357
       -1.392000           0.953990           12.36905           0.280138           12.30477
       -1.388000           0.954927           12.35357           0.280698           12.31597
       -1.384000           0.953721           12.33814           0.281260           12.32722
       -1.380000           0.950410           12.32312           0.281824           12.33849
       -1.376000           0.945066           12.30871           0.282391           12.34975
       -1.372000           0.937794           12.29511           0.282959           12.36101
       -1.368000           0.928738           12.28254           0.283530           12.37232
       -1.364000           0.918070           12.27118           0.284101           12.38363
       -1.360000           0.905960           12.26115           0.284674           12.39504
       -1.356000           0.892609           12.25262           0.285250           12.40643
       -1.352000           0.878216           12.24557           0.285827           12.41777
       -1.348000           0.862979           12.24011           0.286407           12.42922
       -1.344000           0.847090           12.23624           0.286988           12.44072
       -1.340000           0.830732           12.23394           0.287570           12.45221
       -1.336000           0.814072           12.23317           0.288157           12.46368
       -1.332000           0.797267           12.23391           0.288744           12.47521
       -1.328000           0.780447           12.23607           0.289333           12.48675
       -1.324000           0.763733           12.23960           0.289922           12.49831
       -1.320000           0.747227           12.24437           0.290516           12.50985
       -1.316000           0.731016           12.25033           0.291112           12.52153
       -1.312000           0.715163           12.25736           0.291709           12.53315
       -1.308000           0.699734           12.26543           0.292308           12.54476
       -1.304000           0.684767           12.27439           0.292908           12.55650
       -1.300000           0.670292           12.28419           0.293510           12.56819
       -1.296000           0.656334           12.29471           0.294117           12.57995
       -1.292000           0.642906           12.30594           0.294723           12.59174
       -1.288000           0.630016           12.31778           0.295333           12.60349
       -1.284000           0.617665           12.33014           0.295944           12.61529
       -1.280000           0.605847           12.34299           0.296557           12.62713
       -1.276000           0.594556           12.35628           0.297174           12.63902
       -1.272000           0.583782           12.36992           0.297789           12.65090
