#                                                                     
#                                                                     
# Y88b    /   e           e    e      888~~\    ,88~-_                
#  Y88b  /   d8b         d8b  d8b     888   |  d888   \               
#   Y88b/   /Y88b       d888bdY88b    888 _/  88888    |              
#    Y8Y   /  Y88b     / Y88Y Y888b   888  \  88888    |              
#     Y   /____Y88b   /   YY   Y888b  888   |  Y888   /               
#    /   /      Y88b /          Y888b 888__/    `88_-~                
#                                                                     
#                                                                     
# Version 5.2.0 Revision 22885 Hash (prev commit) 41fc9d87d4          
#                Branch is phys-dichroism                             
#         MPI+OpenMP+SLK+SLEPC+HDF5_MPI_IO Build                      
#               http://www.yambo-code.org                             
#
# Joint Density of states @ Q(1):   0.00000000     0.999999975E-5   0.00000000    [q->0 direction]
#
# [GEN] GF Energies                               : Perdew, Burke & Ernzerhof(X)+Perdew, Burke & Ernzerhof(C)
# [GEN] Green`s Function                          : Resonant
#
# [GEN] Gauge                                     : Length
# [GEN] [r,Vnl] included                          : yes
#
# DIP band range                                  :   2   6
# DIP band range limits                           :   6   2
# DIP e/h energy range                            :  -1.00000000     -1.00000000    [eV]
# RL vectors in the sum                           :   603
# [r,Vnl] included                                : yes
# Bands ordered                                   : no
# Direct v evaluation                             : no
# Approach used                                   : G-space v
# Dipoles computed                                : R V P Spin
# Wavefunctions                                   : Perdew, Burke & Ernzerhof(X)+Perdew, Burke & Ernzerhof(C)
#
#
# [K] Identifier                                  :   6181
# [K] Dimension                                   :   894
# [K] Bands                                       :   2   6
# [K] Exchange res                                : yes
# [K] Correlation res                             : no
# [K] Kernel`s coupling                           : no
# [K] Exchange cpl                                : no
# [K] Correlation cpl                             : no
# [K] W interaction is bare                       : no
# [K] ALDA kernel in R-space                      : yes
# [K] RL vectors exchange                         :  1157
# [K] E/h energy range                            :  -1.00000000     -1.00000000    [eV]
# [K] Coupling range                              :   100.000000      100.000000    [o/o]
# [X] Response Kind                               : BAR
#
#
#    E[1] [eV]          Im(jdos)           Re(jdos)           Im(jdos_o)         Re(jdos_o)
#
       -2.000000           0.231027           10.96261           0.212081           10.82560
       -1.996000           0.231607           10.97183           0.212439           10.83406
       -1.992000           0.232193           10.98104           0.212798           10.84256
       -1.988000           0.232784           10.99029           0.213158           10.85108
       -1.984000           0.233380           10.99958           0.213519           10.85960
       -1.980000           0.233982           11.00888           0.213880           10.86813
       -1.976000           0.234589           11.01821           0.214242           10.87671
       -1.972000           0.235202           11.02755           0.214606           10.88524
       -1.968000           0.235821           11.03690           0.214971           10.89384
       -1.964000           0.236446           11.04630           0.215336           10.90244
       -1.960000           0.237076           11.05573           0.215703           10.91104
       -1.956000           0.237714           11.06515           0.216070           10.91969
       -1.952000           0.238357           11.07463           0.216439           10.92831
       -1.948000           0.239007           11.08414           0.216808           10.93699
       -1.944000           0.239663           11.09364           0.217178           10.94567
       -1.940000           0.240327           11.10318           0.217551           10.95433
       -1.936000           0.240997           11.11274           0.217923           10.96305
       -1.932000           0.241675           11.12234           0.218296           10.97177
       -1.928000           0.242360           11.13195           0.218671           10.98045
       -1.924000           0.243052           11.14160           0.219048           10.98923
       -1.920000           0.243752           11.15127           0.219424           10.99802
       -1.916000           0.244460           11.16095           0.219801           11.00675
       -1.912000           0.245176           11.17067           0.220180           11.01557
       -1.908000           0.245900           11.18041           0.220560           11.02436
       -1.904000           0.246633           11.19019           0.220941           11.03316
       -1.900000           0.247375           11.20001           0.221323           11.04199
       -1.896000           0.248125           11.20985           0.221706           11.05085
       -1.892000           0.248885           11.21970           0.222090           11.05976
       -1.888000           0.249654           11.22958           0.222475           11.06860
       -1.884000           0.250432           11.23951           0.222862           11.07751
       -1.880000           0.251221           11.24945           0.223248           11.08641
       -1.876000           0.252020           11.25943           0.223637           11.09536
       -1.872000           0.252829           11.26943           0.224026           11.10432
       -1.868000           0.253650           11.27947           0.224416           11.11327
       -1.864000           0.254481           11.28952           0.224808           11.12225
       -1.860000           0.255323           11.29963           0.225201           11.13117
       -1.856000           0.256178           11.30976           0.225595           11.14024
       -1.852000           0.257045           11.31990           0.225990           11.14927
       -1.848000           0.257923           11.33010           0.226386           11.15832
       -1.844000           0.258815           11.34032           0.226783           11.16736
       -1.840000           0.259720           11.35057           0.227182           11.17642
       -1.836000           0.260638           11.36085           0.227580           11.18551
       -1.832000           0.261570           11.37116           0.227981           11.19461
       -1.828000           0.262518           11.38152           0.228383           11.20376
       -1.824000           0.263479           11.39190           0.228786           11.21288
       -1.820000           0.264456           11.40232           0.229189           11.22201
       -1.816000           0.265449           11.41276           0.229595           11.23121
       -1.812000           0.266458           11.42327           0.230001           11.24038
       -1.808000           0.267484           11.43378           0.230408           11.24954
       -1.804000           0.268528           11.44437           0.230817           11.25879
       -1.800000           0.269589           11.45497           0.231226           11.26799
       -1.796000           0.270669           11.46560           0.231638           11.27729
       -1.792000           0.271768           11.47628           0.232049           11.28652
       -1.788000           0.272887           11.48700           0.232462           11.29579
       -1.784000           0.274027           11.49774           0.232877           11.30510
       -1.780000           0.275187           11.50852           0.233293           11.31441
       -1.776000           0.276369           11.51935           0.233709           11.32376
       -1.772000           0.277575           11.53020           0.234128           11.33307
       -1.768000           0.278803           11.54112           0.234547           11.34244
       -1.764000           0.280057           11.55209           0.234967           11.35184
       -1.760000           0.281335           11.56309           0.235389           11.36119
       -1.756000           0.282640           11.57413           0.235812           11.37066
       -1.752000           0.283971           11.58522           0.236237           11.38010
       -1.748000           0.285331           11.59633           0.236661           11.38955
       -1.744000           0.286720           11.60751           0.237089           11.39898
       -1.740000           0.288139           11.61871           0.237516           11.40848
       -1.736000           0.289590           11.62995           0.237944           11.41795
       -1.732000           0.291073           11.64128           0.238375           11.42745
       -1.728000           0.292590           11.65263           0.238807           11.43699
       -1.724000           0.294143           11.66403           0.239239           11.44657
       -1.720000           0.295732           11.67547           0.239673           11.45611
       -1.716000           0.297359           11.68699           0.240108           11.46574
       -1.712000           0.299026           11.69853           0.240546           11.47533
       -1.708000           0.300735           11.71014           0.240983           11.48497
       -1.704000           0.302485           11.72180           0.241423           11.49458
       -1.700000           0.304283           11.73350           0.241864           11.50422
       -1.696000           0.306125           11.74525           0.242305           11.51391
       -1.692000           0.308017           11.75706           0.242748           11.52357
       -1.688000           0.309959           11.76892           0.243193           11.53335
       -1.684000           0.311955           11.78085           0.243638           11.54302
       -1.680000           0.314005           11.79282           0.244086           11.55278
       -1.676000           0.316114           11.80485           0.244533           11.56255
       -1.672000           0.318282           11.81693           0.244983           11.57230
       -1.668000           0.320514           11.82911           0.245434           11.58210
       -1.664000           0.322812           11.84132           0.245886           11.59189
       -1.660000           0.325179           11.85358           0.246340           11.60175
       -1.656000           0.327618           11.86591           0.246796           11.61162
       -1.652000           0.330131           11.87830           0.247252           11.62150
       -1.648000           0.332725           11.89077           0.247709           11.63138
       -1.644000           0.335400           11.90328           0.248168           11.64130
       -1.640000           0.338164           11.91586           0.248628           11.65121
       -1.636000           0.341018           11.92848           0.249091           11.66112
       -1.632000           0.343967           11.94122           0.249554           11.67105
       -1.628000           0.347016           11.95399           0.250019           11.68107
       -1.624000           0.350171           11.96682           0.250485           11.69104
       -1.620000           0.353435           11.97973           0.250953           11.70107
       -1.616000           0.356817           11.99272           0.251422           11.71118
       -1.612000           0.360320           12.00571           0.251892           11.72122
       -1.608000           0.363949           12.01883           0.252364           11.73127
       -1.604000           0.367714           12.03199           0.252837           11.74136
       -1.600000           0.371621           12.04523           0.253312           11.75147
       -1.596000           0.375677           12.05850           0.253787           11.76160
       -1.592000           0.379889           12.07184           0.254266           11.77175
       -1.588000           0.384267           12.08527           0.254744           11.78195
       -1.584000           0.388817           12.09873           0.255224           11.79214
       -1.580000           0.393552           12.11225           0.255706           11.80232
       -1.576000           0.398478           12.12584           0.256190           11.81255
       -1.572000           0.403609           12.13945           0.256674           11.82278
       -1.568000           0.408952           12.15313           0.257160           11.83302
       -1.564000           0.414522           12.16686           0.257648           11.84335
       -1.560000           0.420327           12.18062           0.258137           11.85365
       -1.556000           0.426385           12.19438           0.258629           11.86397
       -1.552000           0.432704           12.20822           0.259121           11.87432
       -1.548000           0.439302           12.22201           0.259615           11.88466
       -1.544000           0.446191           12.23587           0.260111           11.89503
       -1.540000           0.453387           12.24969           0.260607           11.90548
       -1.536000           0.460908           12.26348           0.261106           11.91584
       -1.532000           0.468767           12.27726           0.261605           11.92634
       -1.528000           0.476981           12.29098           0.262108           11.93675
       -1.524000           0.485572           12.30467           0.262610           11.94723
       -1.520000           0.494553           12.31826           0.263115           11.95778
       -1.516000           0.503944           12.33173           0.263622           11.96825
       -1.512000           0.513763           12.34508           0.264129           11.97879
       -1.508000           0.524027           12.35829           0.264640           11.98939
       -1.504000           0.534755           12.37129           0.265150           11.99994
       -1.500000           0.545962           12.38406           0.265662           12.01055
       -1.496000           0.557665           12.39658           0.266177           12.02116
       -1.492000           0.569878           12.40877           0.266693           12.03183
       -1.488000           0.582613           12.42063           0.267211           12.04247
       -1.484000           0.595880           12.43205           0.267729           12.05317
       -1.480000           0.609682           12.44301           0.268249           12.06385
       -1.476000           0.624022           12.45345           0.268773           12.07460
       -1.472000           0.638896           12.46330           0.269296           12.08536
       -1.468000           0.654294           12.47249           0.269822           12.09611
       -1.464000           0.670197           12.48090           0.270349           12.10688
       -1.460000           0.686577           12.48849           0.270879           12.11770
       -1.456000           0.703396           12.49515           0.271410           12.12859
       -1.452000           0.720606           12.50082           0.271942           12.13943
       -1.448000           0.738142           12.50541           0.272477           12.15030
       -1.444000           0.755925           12.50881           0.273012           12.16116
       -1.440000           0.773864           12.51093           0.273550           12.17208
       -1.436000           0.791842           12.51169           0.274088           12.18301
       -1.432000           0.809740           12.51107           0.274631           12.19396
       -1.428000           0.827406           12.50895           0.275172           12.20496
       -1.424000           0.844677           12.50533           0.275717           12.21594
       -1.420000           0.861382           12.50016           0.276264           12.22703
       -1.416000           0.877335           12.49346           0.276812           12.23802
       -1.412000           0.892331           12.48524           0.277361           12.24910
       -1.408000           0.906175           12.47558           0.277913           12.26024
       -1.404000           0.918669           12.46457           0.278467           12.27131
       -1.400000           0.929629           12.45234           0.279022           12.28247
       -1.396000           0.938871           12.43905           0.279579           12.29357
       -1.392000           0.946251           12.42487           0.280138           12.30477
       -1.388000           0.951643           12.41004           0.280698           12.31597
       -1.384000           0.954958           12.39474           0.281260           12.32722
       -1.380000           0.956143           12.37928           0.281824           12.33849
       -1.376000           0.955187           12.36393           0.282391           12.34975
       -1.372000           0.952113           12.34889           0.282959           12.36101
       -1.368000           0.947000           12.33444           0.283530           12.37232
       -1.364000           0.939950           12.32076           0.284101           12.38363
       -1.360000           0.931098           12.30813           0.284674           12.39504
       -1.356000           0.920609           12.29669           0.285250           12.40643
       -1.352000           0.908655           12.28655           0.285827           12.41777
       -1.348000           0.895443           12.27786           0.286407           12.42922
       -1.344000           0.881162           12.27071           0.286988           12.44072
       -1.340000           0.866015           12.26513           0.287570           12.45221
       -1.336000           0.850196           12.26111           0.288157           12.46368
       -1.332000           0.833889           12.25869           0.288744           12.47521
       -1.328000           0.817260           12.25781           0.289333           12.48675
       -1.324000           0.800469           12.25842           0.289922           12.49831
       -1.320000           0.783647           12.26047           0.290516           12.50985
       -1.316000           0.766920           12.26388           0.291112           12.52153
       -1.312000           0.750390           12.26856           0.291709           12.53315
       -1.308000           0.734146           12.27444           0.292308           12.54476
       -1.304000           0.718255           12.28141           0.292908           12.55650
       -1.300000           0.702777           12.28939           0.293510           12.56819
       -1.296000           0.687759           12.29830           0.294117           12.57995
       -1.292000           0.673231           12.30807           0.294723           12.59174
       -1.288000           0.659217           12.31859           0.295333           12.60349
       -1.284000           0.645734           12.32981           0.295944           12.61529
       -1.280000           0.632786           12.34161           0.296557           12.62713
       -1.276000           0.620376           12.35399           0.297174           12.63902
