#                                                                     
# :   :::   :::     ::::    ::::  :::::::::   ::::::::                
# :+:   :+: :+: :+:   +:+:+: :+:+:+ :+:    :+: :+:    :+              
#  +:+ +:+ +:+   +:+  +:+ +:+:+ +:+ +:+    +:+ +:+    +:+             
#   +#++: +#++:++#++: +#+  +:+  +#+ +#++:++#+  +#+    +:+             
#    +#+  +#+     +#+ +#+       +#+ +#+    +#+ +#+    +#+             
#    #+#  #+#     #+# #+#       #+# #+#    #+# #+#    #+#             
#    ###  ###     ### ###       ### #########   ########              
#                                                                     
#                                                                     
# Version 5.2.0 Revision 22885 Hash (prev commit) 41fc9d87d4          
#                Branch is phys-dichroism                             
#         MPI+OpenMP+SLK+SLEPC+HDF5_MPI_IO Build                      
#                http://www.yambo-code.org                            
#
# Joint Density of states @ Q(2):   0.00000000      0.00000000    -0.500000000    [iku]
#
# [GEN] GF Energies                               : Perdew, Burke & Ernzerhof(X)+Perdew, Burke & Ernzerhof(C)
# [GEN] Green`s Function                          : Resonant
#
# DIP band range                                  :   2   6
# DIP band range limits                           :   6   2
# DIP e/h energy range                            :  -1.00000000     -1.00000000    [eV]
# RL vectors in the sum                           :   603
# [r,Vnl] included                                : yes
# Bands ordered                                   : yes
# Direct v evaluation                             : no
# Approach used                                   : G-space v
# Dipoles computed                                : R V P
# Wavefunctions                                   : Perdew, Burke & Ernzerhof(X)+Perdew, Burke & Ernzerhof(C)
#
#
# [K] Identifier                                  :   4841
# [K] Q-point                                     :   0.00000000      0.00000000    -0.500000000   
# [K] Dimension                                   :   748
# [K] Bands                                       :   2   6
# [K] Exchange res                                : yes
# [K] Correlation res                             : no
# [K] Kernel`s coupling                           : no
# [K] Exchange cpl                                : no
# [K] Correlation cpl                             : no
# [K] W interaction is bare                       : no
# [K] ALDA kernel in R-space                      : yes
# [K] RL vectors exchange                         :  1157
# [K] E/h energy range                            :  -1.00000000     -1.00000000    [eV]
# [K] Coupling range                              :   100.000000      100.000000    [o/o]
# [X] Response Kind                               : BAR
#
#
#    E[1] [eV]          Im(jdos)           Re(jdos)           Im(jdos_o)         Re(jdos_o)
#
       -2.000000           0.267528           10.84454           0.266692           10.82956
       -1.996000           0.268121           10.85524           0.267281           10.84023
       -1.992000           0.268715           10.86596           0.267873           10.85091
       -1.988000           0.269311           10.87671           0.268466           10.86161
       -1.984000           0.269910           10.88747           0.269062           10.87234
       -1.980000           0.270511           10.89826           0.269660           10.88309
       -1.976000           0.271115           10.90908           0.270261           10.89388
       -1.972000           0.271720           10.91992           0.270864           10.90468
       -1.968000           0.272327           10.93077           0.271468           10.91551
       -1.964000           0.272937           10.94166           0.272075           10.92635
       -1.960000           0.273550           10.95256           0.272684           10.93726
       -1.956000           0.274164           10.96351           0.273296           10.94814
       -1.952000           0.274781           10.97446           0.273910           10.95906
       -1.948000           0.275400           10.98545           0.274525           10.97000
       -1.944000           0.276021           10.99646           0.275144           10.98099
       -1.940000           0.276645           11.00749           0.275765           10.99201
       -1.936000           0.277271           11.01855           0.276387           11.00302
       -1.932000           0.277900           11.02964           0.277013           11.01407
       -1.928000           0.278530           11.04075           0.277640           11.02512
       -1.924000           0.279163           11.05188           0.278271           11.03623
       -1.920000           0.279799           11.06304           0.278903           11.04737
       -1.916000           0.280437           11.07422           0.279538           11.05851
       -1.912000           0.281077           11.08543           0.280174           11.06965
       -1.908000           0.281720           11.09667           0.280814           11.08086
       -1.904000           0.282365           11.10793           0.281456           11.09210
       -1.900000           0.283012           11.11922           0.282101           11.10337
       -1.896000           0.283663           11.13053           0.282747           11.11465
       -1.892000           0.284315           11.14186           0.283398           11.12593
       -1.888000           0.284971           11.15323           0.284049           11.13726
       -1.884000           0.285628           11.16462           0.284703           11.14862
       -1.880000           0.286288           11.17605           0.285360           11.16000
       -1.876000           0.286951           11.18748           0.286019           11.17141
       -1.872000           0.287616           11.19895           0.286681           11.18281
       -1.868000           0.288284           11.21045           0.287345           11.19427
       -1.864000           0.288954           11.22197           0.288013           11.20577
       -1.860000           0.289627           11.23351           0.288683           11.21731
       -1.856000           0.290302           11.24510           0.289354           11.22884
       -1.852000           0.290980           11.25671           0.290029           11.24043
       -1.848000           0.291661           11.26833           0.290707           11.25198
       -1.844000           0.292345           11.28000           0.291387           11.26361
       -1.840000           0.293031           11.29167           0.292069           11.27526
       -1.836000           0.293720           11.30338           0.292754           11.28693
       -1.832000           0.294411           11.31514           0.293443           11.29865
       -1.828000           0.295105           11.32689           0.294133           11.31036
       -1.824000           0.295802           11.33870           0.294827           11.32212
       -1.820000           0.296502           11.35051           0.295523           11.33389
       -1.816000           0.297204           11.36238           0.296222           11.34569
       -1.812000           0.297909           11.37424           0.296924           11.35754
       -1.808000           0.298618           11.38617           0.297628           11.36942
       -1.804000           0.299328           11.39808           0.298336           11.38132
       -1.800000           0.300042           11.41005           0.299045           11.39323
       -1.796000           0.300758           11.42205           0.299759           11.40519
       -1.792000           0.301478           11.43407           0.300474           11.41717
       -1.788000           0.302200           11.44611           0.301192           11.42918
       -1.784000           0.302925           11.45819           0.301914           11.44122
       -1.780000           0.303653           11.47030           0.302638           11.45329
       -1.776000           0.304384           11.48243           0.303365           11.46538
       -1.772000           0.305118           11.49460           0.304095           11.47750
       -1.768000           0.305854           11.50680           0.304828           11.48966
       -1.764000           0.306594           11.51901           0.305564           11.50186
       -1.760000           0.307337           11.53127           0.306304           11.51405
       -1.756000           0.308083           11.54355           0.307045           11.52630
       -1.752000           0.308832           11.55587           0.307790           11.53857
       -1.748000           0.309583           11.56821           0.308539           11.55086
       -1.744000           0.310338           11.58058           0.309289           11.56322
       -1.740000           0.311096           11.59298           0.310044           11.57555
       -1.736000           0.311857           11.60542           0.310801           11.58795
       -1.732000           0.312622           11.61789           0.311561           11.60037
       -1.728000           0.313389           11.63037           0.312324           11.61282
       -1.724000           0.314159           11.64290           0.313091           11.62530
       -1.720000           0.314933           11.65546           0.313860           11.63781
       -1.716000           0.315710           11.66805           0.314634           11.65035
       -1.712000           0.316490           11.68066           0.315409           11.66293
       -1.708000           0.317274           11.69330           0.316189           11.67550
       -1.704000           0.318060           11.70600           0.316971           11.68816
       -1.700000           0.318850           11.71870           0.317756           11.70083
       -1.696000           0.319643           11.73144           0.318546           11.71354
       -1.692000           0.320439           11.74422           0.319339           11.72628
       -1.688000           0.321239           11.75702           0.320134           11.73902
       -1.684000           0.322043           11.76987           0.320934           11.75182
       -1.680000           0.322849           11.78272           0.321736           11.76465
       -1.676000           0.323659           11.79563           0.322541           11.77754
       -1.672000           0.324472           11.80856           0.323350           11.79041
       -1.668000           0.325289           11.82153           0.324163           11.80332
       -1.664000           0.326109           11.83453           0.324978           11.81629
       -1.660000           0.326933           11.84756           0.325798           11.82929
       -1.656000           0.327760           11.86063           0.326620           11.84227
       -1.652000           0.328591           11.87372           0.327448           11.85534
       -1.648000           0.329425           11.88686           0.328277           11.86842
       -1.644000           0.330263           11.90002           0.329110           11.88152
       -1.640000           0.331104           11.91321           0.329947           11.89469
       -1.636000           0.331949           11.92644           0.330787           11.90786
       -1.632000           0.332798           11.93971           0.331632           11.92110
       -1.628000           0.333650           11.95301           0.332479           11.93436
       -1.624000           0.334506           11.96634           0.333331           11.94764
       -1.620000           0.335366           11.97970           0.334187           11.96097
       -1.616000           0.336229           11.99312           0.335046           11.97431
       -1.612000           0.337097           12.00655           0.335908           11.98768
       -1.608000           0.337967           12.02000           0.336774           12.00113
       -1.604000           0.338842           12.03352           0.337644           12.01458
       -1.600000           0.339721           12.04707           0.338518           12.02806
       -1.596000           0.340603           12.06062           0.339396           12.04160
       -1.592000           0.341489           12.07424           0.340277           12.05515
       -1.588000           0.342379           12.08788           0.341163           12.06873
       -1.584000           0.343274           12.10158           0.342052           12.08239
       -1.580000           0.344172           12.11527           0.342945           12.09603
       -1.576000           0.345074           12.12903           0.343842           12.10976
       -1.572000           0.345979           12.14284           0.344743           12.12350
       -1.568000           0.346890           12.15665           0.345648           12.13726
       -1.564000           0.347804           12.17051           0.346557           12.15108
       -1.560000           0.348722           12.18441           0.347471           12.16492
       -1.556000           0.349645           12.19833           0.348388           12.17880
       -1.552000           0.350571           12.21230           0.349309           12.19272
       -1.548000           0.351501           12.22631           0.350235           12.20666
       -1.544000           0.352436           12.24036           0.351164           12.22068
       -1.540000           0.353375           12.25443           0.352099           12.23470
       -1.536000           0.354318           12.26855           0.353036           12.24878
       -1.532000           0.355265           12.28271           0.353979           12.26287
       -1.528000           0.356217           12.29689           0.354926           12.27703
       -1.524000           0.357173           12.31113           0.355877           12.29121
       -1.520000           0.358134           12.32540           0.356831           12.30542
       -1.516000           0.359099           12.33970           0.357792           12.31968
       -1.512000           0.360068           12.35406           0.358756           12.33397
       -1.508000           0.361042           12.36845           0.359723           12.34829
       -1.504000           0.362020           12.38287           0.360696           12.36264
       -1.500000           0.363002           12.39734           0.361674           12.37710
       -1.496000           0.363989           12.41183           0.362655           12.39152
       -1.492000           0.364981           12.42637           0.363642           12.40599
       -1.488000           0.365978           12.44095           0.364633           12.42056
       -1.484000           0.366979           12.45556           0.365628           12.43510
       -1.480000           0.367985           12.47022           0.366629           12.44973
       -1.476000           0.368995           12.48493           0.367633           12.46437
       -1.472000           0.370010           12.49967           0.368642           12.47904
       -1.468000           0.371030           12.51445           0.369656           12.49375
       -1.464000           0.372054           12.52927           0.370675           12.50856
       -1.460000           0.373084           12.54413           0.371699           12.52333
       -1.456000           0.374118           12.55904           0.372727           12.53819
       -1.452000           0.375157           12.57399           0.373760           12.55310
       -1.448000           0.376201           12.58898           0.374799           12.56803
       -1.444000           0.377250           12.60400           0.375842           12.58297
       -1.440000           0.378304           12.61906           0.376891           12.59802
       -1.436000           0.379363           12.63417           0.377943           12.61305
       -1.432000           0.380427           12.64933           0.379002           12.62815
       -1.428000           0.381496           12.66453           0.380065           12.64329
       -1.424000           0.382572           12.67977           0.381133           12.65848
       -1.420000           0.383651           12.69505           0.382207           12.67366
       -1.416000           0.384736           12.71037           0.383285           12.68896
       -1.412000           0.385825           12.72574           0.384370           12.70426
       -1.408000           0.386920           12.74114           0.385458           12.71962
       -1.404000           0.388021           12.75661           0.386554           12.73503
       -1.400000           0.389127           12.77210           0.387653           12.75046
       -1.396000           0.390238           12.78764           0.388757           12.76594
       -1.392000           0.391356           12.80324           0.389868           12.78148
       -1.388000           0.392478           12.81886           0.390983           12.79703
       -1.384000           0.393606           12.83454           0.392105           12.81267
       -1.380000           0.394739           12.85026           0.393233           12.82830
       -1.376000           0.395878           12.86602           0.394365           12.84403
       -1.372000           0.397023           12.88182           0.395504           12.85975
       -1.368000           0.398173           12.89770           0.396647           12.87557
       -1.364000           0.399329           12.91360           0.397796           12.89142
       -1.360000           0.400491           12.92954           0.398951           12.90728
       -1.356000           0.401658           12.94553           0.400113           12.92323
       -1.352000           0.402832           12.96157           0.401278           12.93921
       -1.348000           0.404011           12.97768           0.402451           12.95524
       -1.344000           0.405196           12.99380           0.403629           12.97129
       -1.340000           0.406387           13.00998           0.404814           12.98743
       -1.336000           0.407584           13.02621           0.406004           13.00359
       -1.332000           0.408789           13.04248           0.407201           13.01979
       -1.328000           0.409998           13.05881           0.408404           13.03605
       -1.324000           0.411214           13.07518           0.409613           13.05237
       -1.320000           0.412436           13.09159           0.410827           13.06872
       -1.316000           0.413664           13.10807           0.412049           13.08514
       -1.312000           0.414898           13.12460           0.413275           13.10160
       -1.308000           0.416139           13.14116           0.414509           13.11809
       -1.304000           0.417386           13.15777           0.415748           13.13465
       -1.300000           0.418640           13.17445           0.416995           13.15124
       -1.296000           0.419900           13.19116           0.418250           13.16789
       -1.292000           0.421167           13.20794           0.419508           13.18458
       -1.288000           0.422441           13.22473           0.420774           13.20135
       -1.284000           0.423721           13.24162           0.422045           13.21816
       -1.280000           0.425007           13.25851           0.423325           13.23500
       -1.276000           0.426300           13.27549           0.424611           13.25193
