#                                                                     
#  __  __   ________   ___ __ __    _______   ______                  
# /_/\/_/\ /_______/\ /__//_//_/\ /_______/\ /_____/\                 
# \ \ \ \ \\::: _  \ \\::\| \| \ \\::: _  \ \\:::_ \ \                
#  \:\_\ \ \\::(_)  \ \\:.      \ \\::(_)  \/_\:\ \ \ \               
#   \::::_\/ \:: __  \ \\:.\-/\  \ \\::  _  \ \\:\ \ \ \              
#     \::\ \  \:.\ \  \ \\. \  \  \ \\::(_)  \ \\:\_\ \ \             
#      \__\/   \__\/\__\/ \__\/ \__\/ \_______\/ \_____\/             
#                                                                     
#                                                                     
# Version 5.3.0 Revision 23897 Hash (prev commit) 1ec507d413          
#                 Branch is phys-magnons                              
#         MPI+OpenMP+SLK+SLEPC+HDF5_MPI_IO Build                      
#                http://www.yambo-code.eu                             
#
# Joint Density of states @ Q(2):   0.00000000      0.00000000    -0.500000000    [iku]
#
# [GEN] GF Energies                               : Perdew, Burke & Ernzerhof(X)+Perdew, Burke & Ernzerhof(C)
# [GEN] Green`s Function                          : Resonant
#
# DIP band range                                  :   2   6
# DIP band range limits                           :   6   2
# DIP e/h energy range                            :  -1.00000000     -1.00000000    [eV]
# RL vectors in the sum                           :   603
# [r,Vnl] included                                : yes
# Bands ordered                                   : no
# Direct v evaluation                             : no
# Approach used                                   : G-space v
# Dipoles computed                                : R V P [G-space]  M_spin
# Wavefunctions                                   : Perdew, Burke & Ernzerhof(X)+Perdew, Burke & Ernzerhof(C)
#
#
# [K] Identifier                                  :   7517
# [K] Q-point                                     :   0.00000000      0.00000000    -0.500000000   
# [K] Dimension                                   :   885
# [K] Bands                                       :   2   6
# [K] Exchange res                                : no
# [K] Correlation res                             : no
# [K] Kernel`s coupling                           : no
# [K] Exchange cpl                                : no
# [K] Correlation cpl                             : no
# [K] W interaction is bare                       : no
# [K] ALDA kernel in R-space                      : yes
# [K] E/h energy range                            :  -1.00000000     -1.00000000    [eV]
# [K] Coupling range                              :   100.000000      100.000000    [o/o]
# [X] Response Kind                               : BAR
#
#
#    E[1] [eV]          Im(jdos)           Re(jdos)           Im(jdos_o)         Re(jdos_o)
#
       -2.000000           0.218277           10.75920           0.213232           10.68382
       -1.996000           0.218684           10.76792           0.213614           10.69234
       -1.992000           0.219091           10.77667           0.213996           10.70088
       -1.988000           0.219500           10.78543           0.214380           10.70943
       -1.984000           0.219910           10.79420           0.214765           10.71800
       -1.980000           0.220321           10.80299           0.215151           10.72663
       -1.976000           0.220734           10.81181           0.215538           10.73521
       -1.972000           0.221149           10.82063           0.215927           10.74381
       -1.968000           0.221564           10.82947           0.216316           10.75245
       -1.964000           0.221981           10.83834           0.216707           10.76109
       -1.960000           0.222399           10.84720           0.217099           10.76976
       -1.956000           0.222819           10.85610           0.217493           10.77847
       -1.952000           0.223241           10.86501           0.217887           10.78716
       -1.948000           0.223663           10.87393           0.218282           10.79587
       -1.944000           0.224087           10.88288           0.218679           10.80459
       -1.940000           0.224513           10.89184           0.219077           10.81333
       -1.936000           0.224940           10.90081           0.219477           10.82210
       -1.932000           0.225368           10.90981           0.219877           10.83088
       -1.928000           0.225798           10.91882           0.220279           10.83967
       -1.924000           0.226230           10.92785           0.220683           10.84847
       -1.920000           0.226663           10.93689           0.221087           10.85731
       -1.916000           0.227097           10.94596           0.221493           10.86614
       -1.912000           0.227534           10.95504           0.221900           10.87500
       -1.908000           0.227971           10.96414           0.222308           10.88388
       -1.904000           0.228410           10.97324           0.222717           10.89275
       -1.900000           0.228850           10.98237           0.223129           10.90167
       -1.896000           0.229293           10.99153           0.223540           10.91058
       -1.892000           0.229736           11.00071           0.223954           10.91952
       -1.888000           0.230181           11.00988           0.224369           10.92846
       -1.884000           0.230628           11.01909           0.224785           10.93745
       -1.880000           0.231077           11.02829           0.225201           10.94643
       -1.876000           0.231527           11.03755           0.225621           10.95547
       -1.872000           0.231978           11.04681           0.226041           10.96449
       -1.868000           0.232431           11.05607           0.226462           10.97352
       -1.864000           0.232886           11.06536           0.226884           10.98256
       -1.860000           0.233343           11.07469           0.227309           10.99161
       -1.856000           0.233800           11.08401           0.227735           11.00075
       -1.852000           0.234260           11.09335           0.228161           11.00985
       -1.848000           0.234721           11.10272           0.228589           11.01897
       -1.844000           0.235185           11.11210           0.229019           11.02810
       -1.840000           0.235649           11.12151           0.229450           11.03726
       -1.836000           0.236116           11.13093           0.229882           11.04642
       -1.832000           0.236583           11.14036           0.230316           11.05563
       -1.828000           0.237053           11.14982           0.230751           11.06485
       -1.824000           0.237525           11.15931           0.231188           11.07408
       -1.820000           0.237998           11.16880           0.231626           11.08329
       -1.816000           0.238473           11.17831           0.232065           11.09258
       -1.812000           0.238950           11.18786           0.232506           11.10186
       -1.808000           0.239428           11.19740           0.232948           11.11114
       -1.804000           0.239909           11.20698           0.233392           11.12047
       -1.800000           0.240391           11.21656           0.233838           11.12978
       -1.796000           0.240875           11.22617           0.234284           11.13913
       -1.792000           0.241361           11.23580           0.234732           11.14850
       -1.788000           0.241848           11.24546           0.235181           11.15789
       -1.784000           0.242337           11.25512           0.235633           11.16731
       -1.780000           0.242829           11.26481           0.236087           11.17672
       -1.776000           0.243322           11.27452           0.236540           11.18618
       -1.772000           0.243816           11.28424           0.236996           11.19562
       -1.768000           0.244313           11.29400           0.237453           11.20508
       -1.764000           0.244812           11.30375           0.237912           11.21460
       -1.760000           0.245313           11.31355           0.238372           11.22408
       -1.756000           0.245815           11.32335           0.238835           11.23365
       -1.752000           0.246320           11.33319           0.239298           11.24317
       -1.748000           0.246826           11.34303           0.239763           11.25276
       -1.744000           0.247335           11.35290           0.240230           11.26234
       -1.740000           0.247845           11.36278           0.240698           11.27195
       -1.736000           0.248357           11.37269           0.241167           11.28158
       -1.732000           0.248872           11.38262           0.241638           11.29121
       -1.728000           0.249388           11.39257           0.242111           11.30085
       -1.724000           0.249906           11.40254           0.242586           11.31053
       -1.720000           0.250427           11.41252           0.243062           11.32024
       -1.716000           0.250949           11.42253           0.243539           11.32998
       -1.712000           0.251474           11.43257           0.244019           11.33971
       -1.708000           0.252001           11.44261           0.244500           11.34948
       -1.704000           0.252529           11.45269           0.244983           11.35924
       -1.700000           0.253060           11.46278           0.245467           11.36906
       -1.696000           0.253593           11.47289           0.245953           11.37888
       -1.692000           0.254128           11.48302           0.246441           11.38867
       -1.688000           0.254666           11.49319           0.246931           11.39857
       -1.684000           0.255205           11.50337           0.247422           11.40843
       -1.680000           0.255747           11.51358           0.247915           11.41833
       -1.676000           0.256291           11.52379           0.248409           11.42823
       -1.672000           0.256837           11.53402           0.248905           11.43813
       -1.668000           0.257385           11.54431           0.249403           11.44808
       -1.664000           0.257936           11.55459           0.249904           11.45806
       -1.660000           0.258489           11.56488           0.250405           11.46807
       -1.656000           0.259044           11.57522           0.250908           11.47807
       -1.652000           0.259601           11.58559           0.251413           11.48808
       -1.648000           0.260161           11.59597           0.251920           11.49815
       -1.644000           0.260724           11.60635           0.252428           11.50825
       -1.640000           0.261288           11.61677           0.252939           11.51831
       -1.636000           0.261855           11.62722           0.253452           11.52843
       -1.632000           0.262424           11.63768           0.253965           11.53854
       -1.628000           0.262996           11.64818           0.254482           11.54871
       -1.624000           0.263570           11.65868           0.255000           11.55889
       -1.620000           0.264146           11.66922           0.255519           11.56908
       -1.616000           0.264726           11.67978           0.256041           11.57929
       -1.612000           0.265307           11.69035           0.256564           11.58956
       -1.608000           0.265892           11.70096           0.257090           11.59981
       -1.604000           0.266479           11.71157           0.257617           11.61007
       -1.600000           0.267067           11.72224           0.258146           11.62038
       -1.596000           0.267659           11.73291           0.258677           11.63070
       -1.592000           0.268254           11.74362           0.259210           11.64104
       -1.588000           0.268851           11.75432           0.259745           11.65142
       -1.584000           0.269450           11.76507           0.260281           11.66181
       -1.580000           0.270053           11.77584           0.260820           11.67217
       -1.576000           0.270658           11.78662           0.261361           11.68264
       -1.572000           0.271265           11.79743           0.261904           11.69307
       -1.568000           0.271876           11.80829           0.262448           11.70354
       -1.564000           0.272489           11.81914           0.262996           11.71403
       -1.560000           0.273105           11.83003           0.263545           11.72458
       -1.556000           0.273724           11.84096           0.264095           11.73508
       -1.552000           0.274345           11.85188           0.264649           11.74566
       -1.548000           0.274970           11.86285           0.265204           11.75623
       -1.544000           0.275597           11.87383           0.265761           11.76680
       -1.540000           0.276227           11.88485           0.266320           11.77746
       -1.536000           0.276860           11.89587           0.266881           11.78807
       -1.532000           0.277496           11.90694           0.267444           11.79876
       -1.528000           0.278135           11.91803           0.268011           11.80943
       -1.524000           0.278778           11.92915           0.268577           11.82016
       -1.520000           0.279423           11.94028           0.269147           11.83093
       -1.516000           0.280071           11.95145           0.269720           11.84165
       -1.512000           0.280722           11.96264           0.270293           11.85246
       -1.508000           0.281377           11.97385           0.270870           11.86325
       -1.504000           0.282034           11.98509           0.271449           11.87407
       -1.500000           0.282695           11.99637           0.272029           11.88492
       -1.496000           0.283359           12.00766           0.272613           11.89579
       -1.492000           0.284025           12.01898           0.273198           11.90670
       -1.488000           0.284696           12.03031           0.273785           11.91761
       -1.484000           0.285370           12.04170           0.274375           11.92857
       -1.480000           0.286046           12.05309           0.274967           11.93955
       -1.476000           0.286727           12.06453           0.275561           11.95052
       -1.472000           0.287410           12.07599           0.276158           11.96151
       -1.468000           0.288098           12.08745           0.276757           11.97256
       -1.464000           0.288788           12.09896           0.277358           11.98362
       -1.460000           0.289482           12.11050           0.277962           11.99472
       -1.456000           0.290180           12.12206           0.278568           12.00586
       -1.452000           0.290881           12.13367           0.279176           12.01697
       -1.448000           0.291585           12.14528           0.279787           12.02815
       -1.444000           0.292294           12.15694           0.280400           12.03930
       -1.440000           0.293006           12.16860           0.281016           12.05054
       -1.436000           0.293722           12.18030           0.281633           12.06175
       -1.432000           0.294441           12.19204           0.282255           12.07299
       -1.428000           0.295164           12.20380           0.282877           12.08428
       -1.424000           0.295892           12.21558           0.283503           12.09558
       -1.420000           0.296622           12.22739           0.284131           12.10694
       -1.416000           0.297357           12.23923           0.284762           12.11827
       -1.412000           0.298096           12.25112           0.285395           12.12967
       -1.408000           0.298839           12.26303           0.286030           12.14110
       -1.404000           0.299585           12.27497           0.286668           12.15251
       -1.400000           0.300337           12.28693           0.287310           12.16397
       -1.396000           0.301091           12.29891           0.287953           12.17542
       -1.392000           0.301851           12.31095           0.288599           12.18694
       -1.388000           0.302614           12.32300           0.289248           12.19849
       -1.384000           0.303381           12.33508           0.289899           12.21006
       -1.380000           0.304153           12.34721           0.290553           12.22165
       -1.376000           0.304930           12.35935           0.291210           12.23328
       -1.372000           0.305711           12.37149           0.291869           12.24489
       -1.368000           0.306496           12.38372           0.292532           12.25657
       -1.364000           0.307286           12.39596           0.293197           12.26824
       -1.360000           0.308080           12.40823           0.293864           12.27995
       -1.356000           0.308879           12.42053           0.294535           12.29171
       -1.352000           0.309682           12.43286           0.295208           12.30348
       -1.348000           0.310491           12.44522           0.295884           12.31525
       -1.344000           0.311304           12.45762           0.296563           12.32711
       -1.340000           0.312122           12.47005           0.297244           12.33896
       -1.336000           0.312944           12.48251           0.297930           12.35084
       -1.332000           0.313772           12.49500           0.298617           12.36273
       -1.328000           0.314605           12.50752           0.299308           12.37465
       -1.324000           0.315443           12.52009           0.300001           12.38666
       -1.320000           0.316286           12.53267           0.300698           12.39863
       -1.316000           0.317135           12.54530           0.301397           12.41065
       -1.312000           0.317988           12.55796           0.302100           12.42268
       -1.308000           0.318847           12.57064           0.302805           12.43475
       -1.304000           0.319712           12.58337           0.303513           12.44685
       -1.300000           0.320582           12.59613           0.304225           12.45899
       -1.296000           0.321458           12.60893           0.304941           12.47117
       -1.292000           0.322338           12.62174           0.305658           12.48334
       -1.288000           0.323226           12.63463           0.306379           12.49554
       -1.284000           0.324119           12.64751           0.307102           12.50777
       -1.280000           0.325017           12.66044           0.307830           12.52005
       -1.276000           0.325922           12.67342           0.308561           12.53236
       -1.272000           0.326833           12.68641           0.309294           12.54469
