#                                                                     
# :   :::   :::     ::::    ::::  :::::::::   ::::::::                
# :+:   :+: :+: :+:   +:+:+: :+:+:+ :+:    :+: :+:    :+              
#  +:+ +:+ +:+   +:+  +:+ +:+:+ +:+ +:+    +:+ +:+    +:+             
#   +#++: +#++:++#++: +#+  +:+  +#+ +#++:++#+  +#+    +:+             
#    +#+  +#+     +#+ +#+       +#+ +#+    +#+ +#+    +#+             
#    #+#  #+#     #+# #+#       #+# #+#    #+# #+#    #+#             
#    ###  ###     ### ###       ### #########   ########              
#                                                                     
#                                                                     
# Version 5.2.0 Revision 22885 Hash (prev commit) 41fc9d87d4          
#                Branch is phys-dichroism                             
#         MPI+OpenMP+SLK+SLEPC+HDF5_MPI_IO Build                      
#                http://www.yambo-code.org                            
#
# Absorption @ Q(1):   0.00000000     0.999999975E-5   0.00000000    [q->0 direction]
#
# [GEN] GF Energies                               : Perdew, Burke & Ernzerhof(X)+Perdew, Burke & Ernzerhof(C)
# [GEN] Green`s Function                          : Resonant
#
# [GEN] Gauge                                     : Length
# [GEN] [r,Vnl] included                          : yes
#
# DIP band range                                  :   2   6
# DIP band range limits                           :   6   2
# DIP e/h energy range                            :  -1.00000000     -1.00000000    [eV]
# RL vectors in the sum                           :   603
# [r,Vnl] included                                : yes
# Bands ordered                                   : yes
# Direct v evaluation                             : no
# Approach used                                   : G-space v
# Dipoles computed                                : R V P
# Wavefunctions                                   : Perdew, Burke & Ernzerhof(X)+Perdew, Burke & Ernzerhof(C)
#
#
# [K] Identifier                                  :   8810
# [K] Dimension                                   :   694
# [K] Bands                                       :   2   6
# [K] Exchange res                                : yes
# [K] Correlation res                             : no
# [K] Kernel`s coupling                           : no
# [K] Exchange cpl                                : no
# [K] Correlation cpl                             : no
# [K] W interaction is bare                       : no
# [K] ALDA kernel in R-space                      : yes
# [K] RL vectors exchange                         :  1157
# [K] E/h energy range                            :  -1.00000000     -1.00000000    [eV]
# [K] Coupling range                              :   100.000000      100.000000    [o/o]
# [X] Response Kind                               : BAR
#
# Diamagnetic term                                
# Ao                                              :  -7.25616693    [nel]
# A                                               :   0.00000000    [nel]
#
#    E[1] [eV]          Im(eps)            Re(eps)            Im(eps_o)          Re(eps_o)
#
       -2.000000           1.051448           29.35583           1.049847           29.31914
       -1.996000           1.054651           29.39783           1.053046           29.36107
       -1.992000           1.057867           29.43996           1.056258           29.40308
       -1.988000           1.061099           29.48223           1.059487           29.44529
       -1.984000           1.064347           29.52461           1.062732           29.48760
       -1.980000           1.067609           29.56710           1.065989           29.53009
       -1.976000           1.070886           29.60974           1.069264           29.57266
       -1.972000           1.074179           29.65252           1.072552           29.61536
       -1.968000           1.077487           29.69544           1.075855           29.65815
       -1.964000           1.080811           29.73848           1.079174           29.70117
       -1.960000           1.084150           29.78163           1.082512           29.74424
       -1.956000           1.087505           29.82495           1.085862           29.78752
       -1.952000           1.090876           29.86840           1.089230           29.83090
       -1.948000           1.094262           29.91196           1.092614           29.87435
       -1.944000           1.097665           29.95567           1.096010           29.91804
       -1.940000           1.101084           29.99951           1.099427           29.96181
       -1.936000           1.104519           30.04348           1.102855           30.00568
       -1.932000           1.107970           30.08759           1.106305           30.04977
       -1.928000           1.111438           30.13184           1.109768           30.09396
       -1.924000           1.114922           30.17625           1.113247           30.13823
       -1.920000           1.118423           30.22079           1.116745           30.18268
       -1.916000           1.121941           30.26544           1.120260           30.22730
       -1.912000           1.125475           30.31024           1.123790           30.27210
       -1.908000           1.129027           30.35517           1.127337           30.31695
       -1.904000           1.132595           30.40026           1.130901           30.36194
       -1.900000           1.136181           30.44548           1.134482           30.40715
       -1.896000           1.139784           30.49085           1.138082           30.45245
       -1.892000           1.143404           30.53639           1.141698           30.49786
       -1.888000           1.147042           30.58205           1.145332           30.54349
       -1.884000           1.150698           30.62786           1.148983           30.58924
       -1.880000           1.154370           30.67382           1.152651           30.63509
       -1.876000           1.158062           30.71991           1.156339           30.68116
       -1.872000           1.161771           30.76616           1.160045           30.72732
       -1.868000           1.165498           30.81255           1.163767           30.77362
       -1.864000           1.169243           30.85910           1.167508           30.82008
       -1.860000           1.173007           30.90578           1.171267           30.86674
       -1.856000           1.176789           30.95262           1.175045           30.91352
       -1.852000           1.180590           30.99960           1.178842           30.96039
       -1.848000           1.184410           31.04675           1.182656           31.00750
       -1.844000           1.188248           31.09406           1.186490           31.05471
       -1.840000           1.192106           31.14150           1.190345           31.10207
       -1.836000           1.195981           31.18910           1.194216           31.14962
       -1.832000           1.199876           31.23685           1.198107           31.19736
       -1.828000           1.203791           31.28477           1.202020           31.24517
       -1.824000           1.207726           31.33283           1.205950           31.29317
       -1.820000           1.211679           31.38106           1.209900           31.34128
       -1.816000           1.215653           31.42944           1.213867           31.38960
       -1.812000           1.219646           31.47798           1.217857           31.43805
       -1.808000           1.223659           31.52665           1.221867           31.48668
       -1.804000           1.227693           31.57555           1.225896           31.53550
       -1.800000           1.231746           31.62457           1.229946           31.58443
       -1.796000           1.235820           31.67374           1.234015           31.63354
       -1.792000           1.239915           31.72310           1.238105           31.68283
       -1.788000           1.244030           31.77261           1.242216           31.73227
       -1.784000           1.248166           31.82228           1.246349           31.78188
       -1.780000           1.252323           31.87211           1.250500           31.83162
       -1.776000           1.256500           31.92210           1.254675           31.88156
       -1.772000           1.260700           31.97226           1.258870           31.93161
       -1.768000           1.264921           32.02259           1.263087           31.98186
       -1.764000           1.269163           32.07309           1.267324           32.03233
       -1.760000           1.273427           32.12377           1.271582           32.08292
       -1.756000           1.277712           32.17462           1.275865           32.13370
       -1.752000           1.282020           32.22562           1.280169           32.18460
       -1.748000           1.286350           32.27679           1.284494           32.23573
       -1.744000           1.290702           32.32817           1.288842           32.28702
       -1.740000           1.295076           32.37968           1.293209           32.33848
       -1.736000           1.299472           32.43138           1.297604           32.39013
       -1.732000           1.303893           32.48328           1.302019           32.44190
       -1.728000           1.308335           32.53532           1.306459           32.49382
       -1.724000           1.312801           32.58755           1.310920           32.54599
       -1.720000           1.317290           32.63996           1.315404           32.59834
       -1.716000           1.321802           32.69255           1.319913           32.65086
       -1.712000           1.326338           32.74531           1.324442           32.70358
       -1.708000           1.330898           32.79825           1.328998           32.75644
       -1.704000           1.335481           32.85137           1.333576           32.80952
       -1.700000           1.340089           32.90469           1.338181           32.86270
       -1.696000           1.344719           32.95818           1.342809           32.91615
       -1.692000           1.349376           33.01186           1.347459           32.96972
       -1.688000           1.354057           33.06571           1.352136           33.02351
       -1.684000           1.358762           33.11977           1.356838           33.07748
       -1.680000           1.363492           33.17400           1.361562           33.13162
       -1.676000           1.368248           33.22844           1.366314           33.18602
       -1.672000           1.373027           33.28304           1.371089           33.24056
       -1.668000           1.377834           33.33785           1.375893           33.29524
       -1.664000           1.382666           33.39285           1.380720           33.35019
       -1.660000           1.387523           33.44804           1.385572           33.40527
       -1.656000           1.392406           33.50341           1.390450           33.46055
       -1.652000           1.397316           33.55901           1.395356           33.51608
       -1.648000           1.402252           33.61476           1.400288           33.57175
       -1.644000           1.407215           33.67073           1.405246           33.62771
       -1.640000           1.412204           33.72690           1.410229           33.68372
       -1.636000           1.417220           33.78326           1.415242           33.73999
       -1.632000           1.422263           33.83981           1.420282           33.79650
       -1.628000           1.427334           33.89658           1.425347           33.85320
       -1.624000           1.432432           33.95354           1.430440           33.91008
       -1.620000           1.437558           34.01072           1.435565           33.96714
       -1.616000           1.442712           34.06807           1.440712           34.02444
       -1.612000           1.447894           34.12564           1.445890           34.08193
       -1.608000           1.453104           34.18344           1.451095           34.13965
       -1.604000           1.458343           34.24142           1.456332           34.19757
       -1.600000           1.463611           34.29963           1.461594           34.25567
       -1.596000           1.468907           34.35803           1.466887           34.31399
       -1.592000           1.474234           34.41664           1.472208           34.37253
       -1.588000           1.479589           34.47548           1.477560           34.43124
       -1.584000           1.484973           34.53452           1.482939           34.49025
       -1.580000           1.490389           34.59378           1.488350           34.54945
       -1.576000           1.495834           34.65325           1.493790           34.60886
       -1.572000           1.501309           34.71294           1.499259           34.66845
       -1.568000           1.506814           34.77284           1.504762           34.72828
       -1.564000           1.512351           34.83295           1.510296           34.78827
       -1.560000           1.517918           34.89332           1.515860           34.84855
       -1.556000           1.523517           34.95388           1.521452           34.90900
       -1.552000           1.529146           35.01467           1.527079           34.96974
       -1.548000           1.534808           35.07569           1.532736           35.03066
       -1.544000           1.540502           35.13692           1.538424           35.09184
       -1.540000           1.546228           35.19837           1.544147           35.15324
       -1.536000           1.551985           35.26007           1.549902           35.21485
       -1.532000           1.557777           35.32199           1.555688           35.27663
       -1.528000           1.563601           35.38414           1.561507           35.33869
       -1.524000           1.569457           35.44653           1.567360           35.40103
       -1.520000           1.575347           35.50914           1.573242           35.46357
       -1.516000           1.581271           35.57198           1.579162           35.52632
       -1.512000           1.587229           35.63509           1.585116           35.58932
       -1.508000           1.593223           35.69840           1.591106           35.65255
       -1.504000           1.599250           35.76196           1.597127           35.71604
       -1.500000           1.605311           35.82575           1.603189           35.77975
       -1.496000           1.611407           35.88979           1.609279           35.84368
       -1.492000           1.617539           35.95409           1.615408           35.90787
       -1.488000           1.623707           36.01861           1.621570           35.97235
       -1.484000           1.629910           36.08339           1.627769           36.03702
       -1.480000           1.636149           36.14841           1.634003           36.10200
       -1.476000           1.642425           36.21367           1.640277           36.16712
       -1.472000           1.648738           36.27918           1.646582           36.23256
       -1.468000           1.655087           36.34494           1.652927           36.29822
       -1.464000           1.661473           36.41096           1.659306           36.36417
       -1.460000           1.667899           36.47725           1.665728           36.43033
       -1.456000           1.674359           36.54377           1.672185           36.49679
       -1.452000           1.680859           36.61054           1.678684           36.56348
       -1.448000           1.687397           36.67757           1.685217           36.63045
       -1.444000           1.693975           36.74488           1.691787           36.69772
       -1.440000           1.700591           36.81244           1.698399           36.76517
       -1.436000           1.707248           36.88028           1.705057           36.83291
       -1.432000           1.713943           36.94837           1.711743           36.90090
       -1.428000           1.720677           37.01674           1.718474           36.96914
       -1.424000           1.727455           37.08537           1.725247           37.03770
       -1.420000           1.734270           37.15425           1.732057           37.10653
       -1.416000           1.741127           37.22340           1.738910           37.17565
       -1.412000           1.748026           37.29284           1.745804           37.24495
       -1.408000           1.754967           37.36255           1.752740           37.31456
       -1.404000           1.761949           37.43253           1.759722           37.38450
       -1.400000           1.768974           37.50281           1.766742           37.45465
       -1.396000           1.776041           37.57335           1.773806           37.52508
       -1.392000           1.783152           37.64417           1.780912           37.59583
       -1.388000           1.790304           37.71527           1.788061           37.66685
       -1.384000           1.797501           37.78666           1.795253           37.73819
       -1.380000           1.804744           37.85834           1.802492           37.80975
       -1.376000           1.812029           37.93030           1.809773           37.88158
       -1.372000           1.819358           38.00256           1.817100           37.95372
       -1.368000           1.826736           38.07510           1.824471           38.02621
       -1.364000           1.834157           38.14793           1.831892           38.09895
       -1.360000           1.841625           38.22107           1.839355           38.17194
       -1.356000           1.849139           38.29449           1.846863           38.24531
       -1.352000           1.856700           38.36821           1.854421           38.31892
       -1.348000           1.864307           38.44224           1.862020           38.39278
       -1.344000           1.871962           38.51656           1.869674           38.46708
       -1.340000           1.879665           38.59119           1.877376           38.54160
       -1.336000           1.887416           38.66613           1.885123           38.61646
       -1.332000           1.895216           38.74136           1.892915           38.69169
       -1.328000           1.903066           38.81691           1.900760           38.76708
       -1.324000           1.910964           38.89279           1.908657           38.84286
       -1.320000           1.918913           38.96896           1.916604           38.91895
       -1.316000           1.926911           39.04546           1.924597           38.99539
       -1.312000           1.934962           39.12227           1.932643           39.07207
       -1.308000           1.943063           39.19939           1.940737           39.14911
       -1.304000           1.951215           39.27684           1.948888           39.22649
       -1.300000           1.959420           39.35463           1.957092           39.30415
       -1.296000           1.967677           39.43271           1.965346           39.38217
       -1.292000           1.975986           39.51115           1.973651           39.46047
       -1.288000           1.984352           39.58991           1.982010           39.53920
       -1.284000           1.992769           39.66899           1.990425           39.61816
