#                                                                     
#                                                                     
# Y88b    /   e           e    e      888~~\    ,88~-_                
#  Y88b  /   d8b         d8b  d8b     888   |  d888   \               
#   Y88b/   /Y88b       d888bdY88b    888 _/  88888    |              
#    Y8Y   /  Y88b     / Y88Y Y888b   888  \  88888    |              
#     Y   /____Y88b   /   YY   Y888b  888   |  Y888   /               
#    /   /      Y88b /          Y888b 888__/    `88_-~                
#                                                                     
#                                                                     
# Version 5.2.0 Revision 22885 Hash (prev commit) 41fc9d87d4          
#                Branch is phys-dichroism                             
#         MPI+OpenMP+SLK+SLEPC+HDF5_MPI_IO Build                      
#               http://www.yambo-code.org                             
#
# Joint Density of states @ Q(2):   0.00000000      0.00000000    -0.500000000    [iku]
#
# [GEN] GF Energies                               : Perdew, Burke & Ernzerhof(X)+Perdew, Burke & Ernzerhof(C)
# [GEN] Green`s Function                          : Resonant
#
# DIP band range                                  :   2   6
# DIP band range limits                           :   6   2
# DIP e/h energy range                            :  -1.00000000     -1.00000000    [eV]
# RL vectors in the sum                           :   603
# [r,Vnl] included                                : yes
# Bands ordered                                   : no
# Direct v evaluation                             : no
# Approach used                                   : G-space v
# Dipoles computed                                : R V P Spin
# Wavefunctions                                   : Perdew, Burke & Ernzerhof(X)+Perdew, Burke & Ernzerhof(C)
#
#
# [K] Identifier                                  :  2212
# [K] Q-point                                     :   0.00000000      0.00000000    -0.500000000   
# [K] Dimension                                   :   885
# [K] Bands                                       :   2   6
# [K] Exchange res                                : yes
# [K] Correlation res                             : no
# [K] Kernel`s coupling                           : no
# [K] Exchange cpl                                : no
# [K] Correlation cpl                             : no
# [K] W interaction is bare                       : no
# [K] ALDA kernel in R-space                      : yes
# [K] RL vectors exchange                         :  1157
# [K] E/h energy range                            :  -1.00000000     -1.00000000    [eV]
# [K] Coupling range                              :   100.000000      100.000000    [o/o]
# [X] Response Kind                               : BAR
#
#
#    E[1] [eV]          Im(jdos)           Re(jdos)           Im(jdos_o)         Re(jdos_o)
#
       -2.000000           0.218383           10.76052           0.213232           10.68382
       -1.996000           0.218790           10.76924           0.213614           10.69234
       -1.992000           0.219198           10.77800           0.213996           10.70088
       -1.988000           0.219608           10.78676           0.214380           10.70943
       -1.984000           0.220019           10.79553           0.214765           10.71800
       -1.980000           0.220431           10.80433           0.215151           10.72663
       -1.976000           0.220844           10.81314           0.215538           10.73521
       -1.972000           0.221259           10.82198           0.215927           10.74381
       -1.968000           0.221676           10.83082           0.216316           10.75245
       -1.964000           0.222093           10.83969           0.216707           10.76109
       -1.960000           0.222513           10.84857           0.217099           10.76976
       -1.956000           0.222933           10.85746           0.217493           10.77847
       -1.952000           0.223355           10.86638           0.217887           10.78716
       -1.948000           0.223779           10.87531           0.218282           10.79587
       -1.944000           0.224203           10.88426           0.218679           10.80459
       -1.940000           0.224630           10.89322           0.219077           10.81333
       -1.936000           0.225058           10.90220           0.219477           10.82210
       -1.932000           0.225487           10.91119           0.219877           10.83088
       -1.928000           0.225918           10.92021           0.220279           10.83967
       -1.924000           0.226350           10.92925           0.220683           10.84847
       -1.920000           0.226784           10.93830           0.221087           10.85731
       -1.916000           0.227220           10.94736           0.221493           10.86614
       -1.912000           0.227656           10.95644           0.221900           10.87500
       -1.908000           0.228094           10.96556           0.222308           10.88388
       -1.904000           0.228534           10.97467           0.222717           10.89275
       -1.900000           0.228976           10.98381           0.223129           10.90167
       -1.896000           0.229419           10.99297           0.223540           10.91058
       -1.892000           0.229863           11.00214           0.223954           10.91952
       -1.888000           0.230309           11.01132           0.224369           10.92846
       -1.884000           0.230757           11.02053           0.224785           10.93745
       -1.880000           0.231207           11.02976           0.225201           10.94643
       -1.876000           0.231657           11.03901           0.225621           10.95547
       -1.872000           0.232110           11.04828           0.226041           10.96449
       -1.868000           0.232564           11.05755           0.226462           10.97352
       -1.864000           0.233020           11.06684           0.226884           10.98256
       -1.860000           0.233477           11.07617           0.227309           10.99161
       -1.856000           0.233936           11.08550           0.227735           11.00075
       -1.852000           0.234397           11.09484           0.228161           11.00985
       -1.848000           0.234859           11.10422           0.228589           11.01897
       -1.844000           0.235323           11.11360           0.229019           11.02810
       -1.840000           0.235789           11.12302           0.229450           11.03726
       -1.836000           0.236256           11.13243           0.229882           11.04642
       -1.832000           0.236725           11.14189           0.230316           11.05563
       -1.828000           0.237197           11.15135           0.230751           11.06485
       -1.824000           0.237669           11.16084           0.231188           11.07408
       -1.820000           0.238143           11.17034           0.231626           11.08329
       -1.816000           0.238619           11.17985           0.232065           11.09258
       -1.812000           0.239097           11.18940           0.232506           11.10186
       -1.808000           0.239577           11.19896           0.232948           11.11114
       -1.804000           0.240059           11.20853           0.233392           11.12047
       -1.800000           0.240542           11.21813           0.233838           11.12978
       -1.796000           0.241027           11.22775           0.234284           11.13913
       -1.792000           0.241514           11.23739           0.234732           11.14850
       -1.788000           0.242003           11.24704           0.235181           11.15789
       -1.784000           0.242493           11.25670           0.235633           11.16731
       -1.780000           0.242985           11.26640           0.236087           11.17672
       -1.776000           0.243480           11.27611           0.236540           11.18618
       -1.772000           0.243976           11.28585           0.236996           11.19562
       -1.768000           0.244474           11.29561           0.237453           11.20508
       -1.764000           0.244974           11.30537           0.237912           11.21460
       -1.760000           0.245476           11.31517           0.238372           11.22408
       -1.756000           0.245980           11.32499           0.238835           11.23365
       -1.752000           0.246486           11.33480           0.239298           11.24317
       -1.748000           0.246994           11.34467           0.239763           11.25276
       -1.744000           0.247504           11.35454           0.240230           11.26234
       -1.740000           0.248015           11.36443           0.240698           11.27195
       -1.736000           0.248529           11.37436           0.241167           11.28158
       -1.732000           0.249045           11.38429           0.241638           11.29121
       -1.728000           0.249563           11.39424           0.242111           11.30085
       -1.724000           0.250082           11.40422           0.242586           11.31053
       -1.720000           0.250604           11.41420           0.243062           11.32024
       -1.716000           0.251128           11.42423           0.243539           11.32998
       -1.712000           0.251655           11.43428           0.244019           11.33971
       -1.708000           0.252183           11.44433           0.244500           11.34948
       -1.704000           0.252713           11.45439           0.244983           11.35924
       -1.700000           0.253246           11.46451           0.245467           11.36906
       -1.696000           0.253780           11.47464           0.245953           11.37888
       -1.692000           0.254317           11.48478           0.246441           11.38867
       -1.688000           0.254856           11.49495           0.246931           11.39857
       -1.684000           0.255397           11.50513           0.247422           11.40843
       -1.680000           0.255941           11.51534           0.247915           11.41833
       -1.676000           0.256486           11.52556           0.248409           11.42823
       -1.672000           0.257034           11.53582           0.248905           11.43813
       -1.668000           0.257585           11.54609           0.249403           11.44808
       -1.664000           0.258137           11.55639           0.249904           11.45806
       -1.660000           0.258691           11.56671           0.250405           11.46807
       -1.656000           0.259249           11.57704           0.250908           11.47807
       -1.652000           0.259808           11.58740           0.251413           11.48808
       -1.648000           0.260370           11.59779           0.251920           11.49815
       -1.644000           0.260934           11.60819           0.252428           11.50825
       -1.640000           0.261501           11.61862           0.252939           11.51831
       -1.636000           0.262070           11.62908           0.253452           11.52843
       -1.632000           0.262640           11.63955           0.253965           11.53854
       -1.628000           0.263214           11.65003           0.254482           11.54871
       -1.624000           0.263791           11.66058           0.255000           11.55889
       -1.620000           0.264370           11.67111           0.255519           11.56908
       -1.616000           0.264951           11.68167           0.256041           11.57929
       -1.612000           0.265535           11.69225           0.256564           11.58956
       -1.608000           0.266121           11.70287           0.257090           11.59981
       -1.604000           0.266710           11.71351           0.257617           11.61007
       -1.600000           0.267302           11.72415           0.258146           11.62038
       -1.596000           0.267895           11.73486           0.258677           11.63070
       -1.592000           0.268492           11.74556           0.259210           11.64104
       -1.588000           0.269091           11.75627           0.259745           11.65142
       -1.584000           0.269694           11.76703           0.260281           11.66181
       -1.580000           0.270298           11.77781           0.260820           11.67217
       -1.576000           0.270906           11.78861           0.261361           11.68264
       -1.572000           0.271516           11.79945           0.261904           11.69307
       -1.568000           0.272129           11.81028           0.262448           11.70354
       -1.564000           0.272745           11.82116           0.262996           11.71403
       -1.560000           0.273364           11.83207           0.263545           11.72458
       -1.556000           0.273985           11.84299           0.264095           11.73508
       -1.552000           0.274609           11.85391           0.264649           11.74566
       -1.548000           0.275236           11.86492           0.265204           11.75623
       -1.544000           0.275866           11.87591           0.265761           11.76680
       -1.540000           0.276500           11.88690           0.266320           11.77746
       -1.536000           0.277136           11.89797           0.266881           11.78807
       -1.532000           0.277775           11.90905           0.267444           11.79876
       -1.528000           0.278417           11.92015           0.268011           11.80943
       -1.524000           0.279062           11.93126           0.268577           11.82016
       -1.520000           0.279710           11.94241           0.269147           11.83093
       -1.516000           0.280362           11.95358           0.269720           11.84165
       -1.512000           0.281016           11.96479           0.270293           11.85246
       -1.508000           0.281673           11.97603           0.270870           11.86325
       -1.504000           0.282334           11.98728           0.271449           11.87407
       -1.500000           0.282998           11.99853           0.272029           11.88492
       -1.496000           0.283665           12.00986           0.272613           11.89579
       -1.492000           0.284336           12.02119           0.273198           11.90670
       -1.488000           0.285010           12.03254           0.273785           11.91761
       -1.484000           0.285687           12.04394           0.274375           11.92857
       -1.480000           0.286368           12.05534           0.274967           11.93955
       -1.476000           0.287052           12.06679           0.275561           11.95052
       -1.472000           0.287739           12.07827           0.276158           11.96151
       -1.468000           0.288430           12.08975           0.276757           11.97256
       -1.464000           0.289125           12.10125           0.277358           11.98362
       -1.460000           0.289823           12.11281           0.277962           11.99472
       -1.456000           0.290524           12.12439           0.278568           12.00586
       -1.452000           0.291229           12.13600           0.279176           12.01697
       -1.448000           0.291939           12.14762           0.279787           12.02815
       -1.444000           0.292651           12.15930           0.280400           12.03930
       -1.440000           0.293368           12.17100           0.281016           12.05054
       -1.436000           0.294088           12.18270           0.281633           12.06175
       -1.432000           0.294812           12.19444           0.282255           12.07299
       -1.428000           0.295539           12.20622           0.282877           12.08428
       -1.424000           0.296271           12.21802           0.283503           12.09558
       -1.420000           0.297007           12.22985           0.284131           12.10694
       -1.416000           0.297747           12.24171           0.284762           12.11827
       -1.412000           0.298490           12.25361           0.285395           12.12967
       -1.408000           0.299238           12.26551           0.286030           12.14110
       -1.404000           0.299990           12.27747           0.286668           12.15251
       -1.400000           0.300746           12.28945           0.287310           12.16397
       -1.396000           0.301506           12.30147           0.287953           12.17542
       -1.392000           0.302271           12.31350           0.288599           12.18694
       -1.388000           0.303039           12.32557           0.289248           12.19849
       -1.384000           0.303813           12.33767           0.289899           12.21006
       -1.380000           0.304591           12.34980           0.290553           12.22165
       -1.376000           0.305373           12.36196           0.291210           12.23328
       -1.372000           0.306159           12.37416           0.291869           12.24489
       -1.368000           0.306951           12.38637           0.292532           12.25657
       -1.364000           0.307747           12.39863           0.293197           12.26824
       -1.360000           0.308547           12.41091           0.293864           12.27995
       -1.356000           0.309353           12.42324           0.294535           12.29171
       -1.352000           0.310163           12.43557           0.295208           12.30348
       -1.348000           0.310978           12.44795           0.295884           12.31525
       -1.344000           0.311798           12.46039           0.296563           12.32711
       -1.340000           0.312622           12.47282           0.297244           12.33896
       -1.336000           0.313453           12.48531           0.297930           12.35084
       -1.332000           0.314288           12.49781           0.298617           12.36273
       -1.328000           0.315128           12.51037           0.299308           12.37465
       -1.324000           0.315974           12.52293           0.300001           12.38666
       -1.320000           0.316824           12.53554           0.300698           12.39863
       -1.316000           0.317681           12.54818           0.301397           12.41065
       -1.312000           0.318542           12.56089           0.302100           12.42268
       -1.308000           0.319410           12.57359           0.302805           12.43475
       -1.304000           0.320282           12.58632           0.303513           12.44685
       -1.300000           0.321161           12.59910           0.304225           12.45899
       -1.296000           0.322045           12.61192           0.304941           12.47117
       -1.292000           0.322935           12.62478           0.305658           12.48334
       -1.288000           0.323832           12.63766           0.306379           12.49554
       -1.284000           0.324734           12.65058           0.307102           12.50777
       -1.280000           0.325642           12.66355           0.307830           12.52005
       -1.276000           0.326557           12.67653           0.308561           12.53236
