#                                                                     
#   __   __     _        __  __       ____      U  ___  u             
#   \ \ / / U  /"\  U u |" \/ "| u U | __") u    \/"_ \/              
#    \ V /   \/ _ \/   \| |\/| |/   \|  _ \/     | | | |              
#   U_|"|_u  / ___ \    | |  | |     | |_) | .-,_| |_| |              
#     |_|   /_/   \_\   |_|  |_|     |____/   \_)-\___/               
# .-,//|(_   \\    >>  <<,-,,-.     _|| \\_        \\                 
#  \_) (__) (__)  (__)  (./  \.)   (__) (__)      (__)                
#                                                                     
#                                                                     
# Version 5.2.0 Revision 22885 Hash (prev commit) 41fc9d87d4          
#                Branch is phys-dichroism                             
#         MPI+OpenMP+SLK+SLEPC+HDF5_MPI_IO Build                      
#                http://www.yambo-code.org                            
#
# Joint Density of states @ Q(2):   0.00000000      0.00000000    -0.500000000    [iku]
#
# [GEN] GF Energies                               : Perdew, Burke & Ernzerhof(X)+Perdew, Burke & Ernzerhof(C)
# [GEN] Green`s Function                          : Resonant
#
# DIP band range                                  :   2   6
# DIP band range limits                           :   6   2
# DIP e/h energy range                            :  -1.00000000     -1.00000000    [eV]
# RL vectors in the sum                           :   603
# [r,Vnl] included                                : yes
# Bands ordered                                   : no
# Direct v evaluation                             : no
# Approach used                                   : G-space v
# Dipoles computed                                : R V P Spin
# Wavefunctions                                   : Perdew, Burke & Ernzerhof(X)+Perdew, Burke & Ernzerhof(C)
#
#
# [K] Identifier                                  :  2204
# [K] Q-point                                     :   0.00000000      0.00000000    -0.500000000   
# [K] Dimension                                   :   885
# [K] Bands                                       :   2   6
# [K] Exchange res                                : yes
# [K] Correlation res                             : no
# [K] Kernel`s coupling                           : no
# [K] Exchange cpl                                : no
# [K] Correlation cpl                             : no
# [K] W interaction is bare                       : no
# [K] ALDA kernel in R-space                      : yes
# [K] RL vectors exchange                         :  1157
# [K] E/h energy range                            :  -1.00000000     -1.00000000    [eV]
# [K] Coupling range                              :   100.000000      100.000000    [o/o]
# [X] Response Kind                               : BAR
#
#
#    E[1] [eV]          Im(jdos)           Re(jdos)           Im(jdos_o)         Re(jdos_o)
#
       -2.000000           0.216281           10.74124           0.213232           10.68382
       -1.996000           0.216673           10.74988           0.213614           10.69234
       -1.992000           0.217067           10.75856           0.213996           10.70088
       -1.988000           0.217462           10.76724           0.214380           10.70943
       -1.984000           0.217858           10.77592           0.214765           10.71800
       -1.980000           0.218255           10.78464           0.215151           10.72663
       -1.976000           0.218654           10.79337           0.215538           10.73521
       -1.972000           0.219054           10.80211           0.215927           10.74381
       -1.968000           0.219454           10.81087           0.216316           10.75245
       -1.964000           0.219857           10.81965           0.216707           10.76109
       -1.960000           0.220260           10.82844           0.217099           10.76976
       -1.956000           0.220665           10.83725           0.217493           10.77847
       -1.952000           0.221071           10.84607           0.217887           10.78716
       -1.948000           0.221479           10.85491           0.218282           10.79587
       -1.944000           0.221887           10.86377           0.218679           10.80459
       -1.940000           0.222297           10.87263           0.219077           10.81333
       -1.936000           0.222708           10.88153           0.219477           10.82210
       -1.932000           0.223121           10.89044           0.219877           10.83088
       -1.928000           0.223535           10.89935           0.220279           10.83967
       -1.924000           0.223950           10.90830           0.220683           10.84847
       -1.920000           0.224367           10.91725           0.221087           10.85731
       -1.916000           0.224785           10.92622           0.221493           10.86614
       -1.912000           0.225204           10.93522           0.221900           10.87500
       -1.908000           0.225624           10.94421           0.222308           10.88388
       -1.904000           0.226046           10.95324           0.222717           10.89275
       -1.900000           0.226469           10.96228           0.223129           10.90167
       -1.896000           0.226894           10.97134           0.223540           10.91058
       -1.892000           0.227320           10.98040           0.223954           10.91952
       -1.888000           0.227748           10.98950           0.224369           10.92846
       -1.884000           0.228176           10.99860           0.224785           10.93745
       -1.880000           0.228607           11.00772           0.225201           10.94643
       -1.876000           0.229038           11.01687           0.225621           10.95547
       -1.872000           0.229471           11.02603           0.226041           10.96449
       -1.868000           0.229906           11.03520           0.226462           10.97352
       -1.864000           0.230341           11.04441           0.226884           10.98256
       -1.860000           0.230779           11.05360           0.227309           10.99161
       -1.856000           0.231217           11.06284           0.227735           11.00075
       -1.852000           0.231658           11.07207           0.228161           11.00985
       -1.848000           0.232099           11.08135           0.228589           11.01897
       -1.844000           0.232543           11.09063           0.229019           11.02810
       -1.840000           0.232987           11.09993           0.229450           11.03726
       -1.836000           0.233433           11.10924           0.229882           11.04642
       -1.832000           0.233881           11.11856           0.230316           11.05563
       -1.828000           0.234330           11.12792           0.230751           11.06485
       -1.824000           0.234780           11.13728           0.231188           11.07408
       -1.820000           0.235232           11.14668           0.231626           11.08329
       -1.816000           0.235686           11.15610           0.232065           11.09258
       -1.812000           0.236141           11.16551           0.232506           11.10186
       -1.808000           0.236597           11.17495           0.232948           11.11114
       -1.804000           0.237056           11.18441           0.233392           11.12047
       -1.800000           0.237515           11.19388           0.233838           11.12978
       -1.796000           0.237976           11.20339           0.234284           11.13913
       -1.792000           0.238439           11.21291           0.234732           11.14850
       -1.788000           0.238904           11.22244           0.235181           11.15789
       -1.784000           0.239369           11.23198           0.235633           11.16731
       -1.780000           0.239837           11.24156           0.236087           11.17672
       -1.776000           0.240306           11.25115           0.236540           11.18618
       -1.772000           0.240777           11.26077           0.236996           11.19562
       -1.768000           0.241249           11.27038           0.237453           11.20508
       -1.764000           0.241723           11.28002           0.237912           11.21460
       -1.760000           0.242199           11.28970           0.238372           11.22408
       -1.756000           0.242676           11.29938           0.238835           11.23365
       -1.752000           0.243155           11.30908           0.239298           11.24317
       -1.748000           0.243635           11.31880           0.239763           11.25276
       -1.744000           0.244118           11.32854           0.240230           11.26234
       -1.740000           0.244602           11.33830           0.240698           11.27195
       -1.736000           0.245088           11.34809           0.241167           11.28158
       -1.732000           0.245575           11.35788           0.241638           11.29121
       -1.728000           0.246063           11.36770           0.242111           11.30085
       -1.724000           0.246554           11.37754           0.242586           11.31053
       -1.720000           0.247046           11.38741           0.243062           11.32024
       -1.716000           0.247541           11.39727           0.243539           11.32998
       -1.712000           0.248037           11.40717           0.244019           11.33971
       -1.708000           0.248535           11.41708           0.244500           11.34948
       -1.704000           0.249034           11.42702           0.244983           11.35924
       -1.700000           0.249535           11.43699           0.245467           11.36906
       -1.696000           0.250038           11.44696           0.245953           11.37888
       -1.692000           0.250543           11.45696           0.246441           11.38867
       -1.688000           0.251049           11.46696           0.246931           11.39857
       -1.684000           0.251558           11.47701           0.247422           11.40843
       -1.680000           0.252068           11.48707           0.247915           11.41833
       -1.676000           0.252580           11.49713           0.248409           11.42823
       -1.672000           0.253094           11.50724           0.248905           11.43813
       -1.668000           0.253610           11.51735           0.249403           11.44808
       -1.664000           0.254127           11.52750           0.249904           11.45806
       -1.660000           0.254646           11.53765           0.250405           11.46807
       -1.656000           0.255168           11.54783           0.250908           11.47807
       -1.652000           0.255691           11.55804           0.251413           11.48808
       -1.648000           0.256216           11.56827           0.251920           11.49815
       -1.644000           0.256743           11.57850           0.252428           11.50825
       -1.640000           0.257272           11.58877           0.252939           11.51831
       -1.636000           0.257803           11.59906           0.253452           11.52843
       -1.632000           0.258336           11.60935           0.253965           11.53854
       -1.628000           0.258871           11.61970           0.254482           11.54871
       -1.624000           0.259408           11.63003           0.255000           11.55889
       -1.620000           0.259947           11.64041           0.255519           11.56908
       -1.616000           0.260487           11.65080           0.256041           11.57929
       -1.612000           0.261030           11.66120           0.256564           11.58956
       -1.608000           0.261575           11.67166           0.257090           11.59981
       -1.604000           0.262122           11.68210           0.257617           11.61007
       -1.600000           0.262671           11.69260           0.258146           11.62038
       -1.596000           0.263222           11.70307           0.258677           11.63070
       -1.592000           0.263775           11.71361           0.259210           11.64104
       -1.588000           0.264330           11.72414           0.259745           11.65142
       -1.584000           0.264887           11.73472           0.260281           11.66181
       -1.580000           0.265447           11.74531           0.260820           11.67217
       -1.576000           0.266008           11.75592           0.261361           11.68264
       -1.572000           0.266572           11.76655           0.261904           11.69307
       -1.568000           0.267137           11.77722           0.262448           11.70354
       -1.564000           0.267705           11.78789           0.262996           11.71403
       -1.560000           0.268275           11.79859           0.263545           11.72458
       -1.556000           0.268847           11.80931           0.264095           11.73508
       -1.552000           0.269422           11.82006           0.264649           11.74566
       -1.548000           0.269998           11.83084           0.265204           11.75623
       -1.544000           0.270578           11.84163           0.265761           11.76680
       -1.540000           0.271159           11.85244           0.266320           11.77746
       -1.536000           0.271742           11.86328           0.266881           11.78807
       -1.532000           0.272327           11.87414           0.267444           11.79876
       -1.528000           0.272915           11.88503           0.268011           11.80943
       -1.524000           0.273506           11.89594           0.268577           11.82016
       -1.520000           0.274098           11.90688           0.269147           11.83093
       -1.516000           0.274693           11.91782           0.269720           11.84165
       -1.512000           0.275290           11.92882           0.270293           11.85246
       -1.508000           0.275890           11.93981           0.270870           11.86325
       -1.504000           0.276492           11.95084           0.271449           11.87407
       -1.500000           0.277096           11.96189           0.272029           11.88492
       -1.496000           0.277702           11.97296           0.272613           11.89579
       -1.492000           0.278312           11.98406           0.273198           11.90670
       -1.488000           0.278923           11.99519           0.273785           11.91761
       -1.484000           0.279537           12.00635           0.274375           11.92857
       -1.480000           0.280154           12.01752           0.274967           11.93955
       -1.476000           0.280772           12.02871           0.275561           11.95052
       -1.472000           0.281394           12.03993           0.276158           11.96151
       -1.468000           0.282018           12.05118           0.276757           11.97256
       -1.464000           0.282644           12.06245           0.277358           11.98362
       -1.460000           0.283273           12.07374           0.277962           11.99472
       -1.456000           0.283905           12.08507           0.278568           12.00586
       -1.452000           0.284539           12.09641           0.279176           12.01697
       -1.448000           0.285176           12.10779           0.279787           12.02815
       -1.444000           0.285815           12.11918           0.280400           12.03930
       -1.440000           0.286457           12.13061           0.281016           12.05054
       -1.436000           0.287101           12.14206           0.281633           12.06175
       -1.432000           0.287749           12.15353           0.282255           12.07299
       -1.428000           0.288399           12.16502           0.282877           12.08428
       -1.424000           0.289051           12.17656           0.283503           12.09558
       -1.420000           0.289707           12.18811           0.284131           12.10694
       -1.416000           0.290365           12.19969           0.284762           12.11827
       -1.412000           0.291025           12.21130           0.285395           12.12967
       -1.408000           0.291689           12.22294           0.286030           12.14110
       -1.404000           0.292356           12.23458           0.286668           12.15251
       -1.400000           0.293025           12.24627           0.287310           12.16397
       -1.396000           0.293697           12.25798           0.287953           12.17542
       -1.392000           0.294372           12.26971           0.288599           12.18694
       -1.388000           0.295050           12.28148           0.289248           12.19849
       -1.384000           0.295731           12.29326           0.289899           12.21006
       -1.380000           0.296414           12.30509           0.290553           12.22165
       -1.376000           0.297101           12.31693           0.291210           12.23328
       -1.372000           0.297790           12.32882           0.291869           12.24489
       -1.368000           0.298483           12.34071           0.292532           12.25657
       -1.364000           0.299178           12.35264           0.293197           12.26824
       -1.360000           0.299877           12.36461           0.293864           12.27995
       -1.356000           0.300578           12.37658           0.294535           12.29171
       -1.352000           0.301282           12.38859           0.295208           12.30348
       -1.348000           0.301990           12.40063           0.295884           12.31525
       -1.344000           0.302701           12.41270           0.296563           12.32711
       -1.340000           0.303415           12.42480           0.297244           12.33896
       -1.336000           0.304132           12.43692           0.297930           12.35084
       -1.332000           0.304852           12.44907           0.298617           12.36273
       -1.328000           0.305575           12.46125           0.299308           12.37465
       -1.324000           0.306302           12.47347           0.300001           12.38666
       -1.320000           0.307032           12.48569           0.300698           12.39863
       -1.316000           0.307765           12.49797           0.301397           12.41065
       -1.312000           0.308501           12.51028           0.302100           12.42268
       -1.308000           0.309241           12.52259           0.302805           12.43475
       -1.304000           0.309984           12.53495           0.303513           12.44685
       -1.300000           0.310730           12.54734           0.304225           12.45899
       -1.296000           0.311480           12.55975           0.304941           12.47117
       -1.292000           0.312233           12.57220           0.305658           12.48334
       -1.288000           0.312990           12.58468           0.306379           12.49554
       -1.284000           0.313750           12.59718           0.307102           12.50777
       -1.280000           0.314514           12.60970           0.307830           12.52005
       -1.276000           0.315281           12.62228           0.308561           12.53236
