#                                                                     
#  __  __   ________   ___ __ __    _______   ______                  
# /_/\/_/\ /_______/\ /__//_//_/\ /_______/\ /_____/\                 
# \ \ \ \ \\::: _  \ \\::\| \| \ \\::: _  \ \\:::_ \ \                
#  \:\_\ \ \\::(_)  \ \\:.      \ \\::(_)  \/_\:\ \ \ \               
#   \::::_\/ \:: __  \ \\:.\-/\  \ \\::  _  \ \\:\ \ \ \              
#     \::\ \  \:.\ \  \ \\. \  \  \ \\::(_)  \ \\:\_\ \ \             
#      \__\/   \__\/\__\/ \__\/ \__\/ \_______\/ \_____\/             
#                                                                     
#                                                                     
# Version 5.2.0 Revision 22885 Hash (prev commit) 41fc9d87d4          
#                Branch is phys-dichroism                             
#         MPI+OpenMP+SLK+SLEPC+HDF5_MPI_IO Build                      
#                http://www.yambo-code.org                            
#
# Joint Density of states @ Q(2):   0.00000000      0.00000000    -0.500000000    [iku]
#
# [GEN] GF Energies                               : Perdew, Burke & Ernzerhof(X)+Perdew, Burke & Ernzerhof(C)
# [GEN] Green`s Function                          : Resonant
#
# DIP band range                                  :   2   6
# DIP band range limits                           :   6   2
# DIP e/h energy range                            :  -1.00000000     -1.00000000    [eV]
# RL vectors in the sum                           :   603
# [r,Vnl] included                                : yes
# Bands ordered                                   : yes
# Direct v evaluation                             : no
# Approach used                                   : G-space v
# Dipoles computed                                : R V P
# Wavefunctions                                   : Perdew, Burke & Ernzerhof(X)+Perdew, Burke & Ernzerhof(C)
#
#
# [K] Identifier                                  :   7737
# [K] Q-point                                     :   0.00000000      0.00000000    -0.500000000   
# [K] Dimension                                   :   748
# [K] Bands                                       :   2   6
# [K] Exchange res                                : yes
# [K] Correlation res                             : no
# [K] Kernel`s coupling                           : no
# [K] Exchange cpl                                : no
# [K] Correlation cpl                             : no
# [K] W interaction is bare                       : no
# [K] ALDA kernel in R-space                      : yes
# [K] RL vectors exchange                         :  1157
# [K] E/h energy range                            :  -1.00000000     -1.00000000    [eV]
# [K] Coupling range                              :   100.000000      100.000000    [o/o]
# [X] Response Kind                               : BAR
#
#
#    E[1] [eV]          Im(jdos)           Re(jdos)           Im(jdos_o)         Re(jdos_o)
#
       -2.000000           0.267495           10.84365           0.266692           10.82956
       -1.996000           0.268087           10.85433           0.267281           10.84023
       -1.992000           0.268681           10.86505           0.267873           10.85091
       -1.988000           0.269278           10.87579           0.268466           10.86161
       -1.984000           0.269877           10.88656           0.269062           10.87234
       -1.980000           0.270478           10.89734           0.269660           10.88309
       -1.976000           0.271081           10.90816           0.270261           10.89388
       -1.972000           0.271686           10.91900           0.270864           10.90468
       -1.968000           0.272294           10.92986           0.271468           10.91551
       -1.964000           0.272904           10.94075           0.272075           10.92635
       -1.960000           0.273516           10.95165           0.272684           10.93726
       -1.956000           0.274130           10.96259           0.273296           10.94814
       -1.952000           0.274747           10.97356           0.273910           10.95906
       -1.948000           0.275366           10.98453           0.274525           10.97000
       -1.944000           0.275987           10.99554           0.275144           10.98099
       -1.940000           0.276611           11.00657           0.275765           10.99201
       -1.936000           0.277237           11.01763           0.276387           11.00302
       -1.932000           0.277865           11.02871           0.277013           11.01407
       -1.928000           0.278496           11.03983           0.277640           11.02512
       -1.924000           0.279129           11.05095           0.278271           11.03623
       -1.920000           0.279764           11.06211           0.278903           11.04737
       -1.916000           0.280402           11.07329           0.279538           11.05851
       -1.912000           0.281042           11.08450           0.280174           11.06965
       -1.908000           0.281685           11.09573           0.280814           11.08086
       -1.904000           0.282330           11.10700           0.281456           11.09210
       -1.900000           0.282978           11.11828           0.282101           11.10337
       -1.896000           0.283627           11.12959           0.282747           11.11465
       -1.892000           0.284280           11.14092           0.283398           11.12593
       -1.888000           0.284936           11.15228           0.284049           11.13726
       -1.884000           0.285593           11.16368           0.284703           11.14862
       -1.880000           0.286253           11.17509           0.285360           11.16000
       -1.876000           0.286916           11.18655           0.286019           11.17141
       -1.872000           0.287580           11.19801           0.286681           11.18281
       -1.868000           0.288248           11.20949           0.287345           11.19427
       -1.864000           0.288919           11.22102           0.288013           11.20577
       -1.860000           0.289591           11.23257           0.288683           11.21731
       -1.856000           0.290267           11.24415           0.289354           11.22884
       -1.852000           0.290945           11.25574           0.290029           11.24043
       -1.848000           0.291626           11.26738           0.290707           11.25198
       -1.844000           0.292309           11.27904           0.291387           11.26361
       -1.840000           0.292995           11.29071           0.292069           11.27526
       -1.836000           0.293683           11.30243           0.292754           11.28693
       -1.832000           0.294375           11.31416           0.293443           11.29865
       -1.828000           0.295070           11.32594           0.294133           11.31036
       -1.824000           0.295766           11.33773           0.294827           11.32212
       -1.820000           0.296466           11.34955           0.295523           11.33389
       -1.816000           0.297168           11.36141           0.296222           11.34569
       -1.812000           0.297873           11.37329           0.296924           11.35754
       -1.808000           0.298581           11.38519           0.297628           11.36942
       -1.804000           0.299292           11.39711           0.298336           11.38132
       -1.800000           0.300005           11.40908           0.299045           11.39323
       -1.796000           0.300722           11.42107           0.299759           11.40519
       -1.792000           0.301441           11.43309           0.300474           11.41717
       -1.788000           0.302163           11.44515           0.301192           11.42918
       -1.784000           0.302888           11.45721           0.301914           11.44122
       -1.780000           0.303616           11.46932           0.302638           11.45329
       -1.776000           0.304346           11.48145           0.303365           11.46538
       -1.772000           0.305081           11.49362           0.304095           11.47750
       -1.768000           0.305817           11.50582           0.304828           11.48966
       -1.764000           0.306557           11.51804           0.305564           11.50186
       -1.760000           0.307300           11.53028           0.306304           11.51405
       -1.756000           0.308046           11.54259           0.307045           11.52630
       -1.752000           0.308794           11.55488           0.307790           11.53857
       -1.748000           0.309546           11.56723           0.308539           11.55086
       -1.744000           0.310301           11.57959           0.309289           11.56322
       -1.740000           0.311059           11.59200           0.310044           11.57555
       -1.736000           0.311820           11.60441           0.310801           11.58795
       -1.732000           0.312584           11.61689           0.311561           11.60037
       -1.728000           0.313351           11.62938           0.312324           11.61282
       -1.724000           0.314122           11.64190           0.313091           11.62530
       -1.720000           0.314896           11.65446           0.313860           11.63781
       -1.716000           0.315672           11.66704           0.314634           11.65035
       -1.712000           0.316452           11.67967           0.315409           11.66293
       -1.708000           0.317236           11.69230           0.316189           11.67550
       -1.704000           0.318022           11.70497           0.316971           11.68816
       -1.700000           0.318812           11.71770           0.317756           11.70083
       -1.696000           0.319605           11.73043           0.318546           11.71354
       -1.692000           0.320401           11.74320           0.319339           11.72628
       -1.688000           0.321201           11.75602           0.320134           11.73902
       -1.684000           0.322004           11.76884           0.320934           11.75182
       -1.680000           0.322811           11.78171           0.321736           11.76465
       -1.676000           0.323621           11.79461           0.322541           11.77754
       -1.672000           0.324434           11.80753           0.323350           11.79041
       -1.668000           0.325251           11.82051           0.324163           11.80332
       -1.664000           0.326070           11.83351           0.324978           11.81629
       -1.660000           0.326894           11.84654           0.325798           11.82929
       -1.656000           0.327721           11.85961           0.326620           11.84227
       -1.652000           0.328552           11.87269           0.327448           11.85534
       -1.648000           0.329386           11.88583           0.328277           11.86842
       -1.644000           0.330224           11.89899           0.329110           11.88152
       -1.640000           0.331065           11.91219           0.329947           11.89469
       -1.636000           0.331910           11.92542           0.330787           11.90786
       -1.632000           0.332759           11.93867           0.331632           11.92110
       -1.628000           0.333611           11.95196           0.332479           11.93436
       -1.624000           0.334467           11.96530           0.333331           11.94764
       -1.620000           0.335327           11.97866           0.334187           11.96097
       -1.616000           0.336190           11.99207           0.335046           11.97431
       -1.612000           0.337057           12.00551           0.335908           11.98768
       -1.608000           0.337928           12.01897           0.336774           12.00113
       -1.604000           0.338802           12.03246           0.337644           12.01458
       -1.600000           0.339681           12.04600           0.338518           12.02806
       -1.596000           0.340563           12.05958           0.339396           12.04160
       -1.592000           0.341449           12.07320           0.340277           12.05515
       -1.588000           0.342339           12.08683           0.341163           12.06873
       -1.584000           0.343234           12.10051           0.342052           12.08239
       -1.580000           0.344132           12.11422           0.342945           12.09603
       -1.576000           0.345033           12.12798           0.343842           12.10976
       -1.572000           0.345940           12.14176           0.344743           12.12350
       -1.568000           0.346849           12.15560           0.345648           12.13726
       -1.564000           0.347764           12.16944           0.346557           12.15108
       -1.560000           0.348681           12.18333           0.347471           12.16492
       -1.556000           0.349604           12.19725           0.348388           12.17880
       -1.552000           0.350530           12.21124           0.349309           12.19272
       -1.548000           0.351461           12.22524           0.350235           12.20666
       -1.544000           0.352395           12.23928           0.351164           12.22068
       -1.540000           0.353334           12.25336           0.352099           12.23470
       -1.536000           0.354277           12.26749           0.353036           12.24878
       -1.532000           0.355225           12.28162           0.353979           12.26287
       -1.528000           0.356176           12.29583           0.354926           12.27703
       -1.524000           0.357133           12.31006           0.355877           12.29121
       -1.520000           0.358093           12.32432           0.356831           12.30542
       -1.516000           0.359057           12.33864           0.357792           12.31968
       -1.512000           0.360027           12.35298           0.358756           12.33397
       -1.508000           0.361001           12.36736           0.359723           12.34829
       -1.504000           0.361978           12.38177           0.360696           12.36264
       -1.500000           0.362961           12.39625           0.361674           12.37710
       -1.496000           0.363949           12.41074           0.362655           12.39152
       -1.492000           0.364940           12.42528           0.363642           12.40599
       -1.488000           0.365936           12.43984           0.364633           12.42056
       -1.484000           0.366937           12.45448           0.365628           12.43510
       -1.480000           0.367943           12.46913           0.366629           12.44973
       -1.476000           0.368953           12.48383           0.367633           12.46437
       -1.472000           0.369968           12.49857           0.368642           12.47904
       -1.468000           0.370988           12.51336           0.369656           12.49375
       -1.464000           0.372012           12.52817           0.370675           12.50856
       -1.460000           0.373042           12.54304           0.371699           12.52333
       -1.456000           0.374076           12.55792           0.372727           12.53819
       -1.452000           0.375115           12.57288           0.373760           12.55310
       -1.448000           0.376159           12.58786           0.374799           12.56803
       -1.444000           0.377208           12.60289           0.375842           12.58297
       -1.440000           0.378262           12.61797           0.376891           12.59802
       -1.436000           0.379321           12.63308           0.377943           12.61305
       -1.432000           0.380385           12.64821           0.379002           12.62815
       -1.428000           0.381454           12.66341           0.380065           12.64329
       -1.424000           0.382529           12.67865           0.381133           12.65848
       -1.420000           0.383608           12.69394           0.382207           12.67366
       -1.416000           0.384693           12.70925           0.383285           12.68896
       -1.412000           0.385783           12.72462           0.384370           12.70426
       -1.408000           0.386878           12.74001           0.385458           12.71962
       -1.404000           0.387979           12.75549           0.386554           12.73503
       -1.400000           0.389084           12.77098           0.387653           12.75046
       -1.396000           0.390196           12.78651           0.388757           12.76594
       -1.392000           0.391313           12.80211           0.389868           12.78148
       -1.388000           0.392435           12.81772           0.390983           12.79703
       -1.384000           0.393563           12.83340           0.392105           12.81267
       -1.380000           0.394696           12.84912           0.393233           12.82830
       -1.376000           0.395835           12.86487           0.394365           12.84403
       -1.372000           0.396979           12.88067           0.395504           12.85975
       -1.368000           0.398130           12.89655           0.396647           12.87557
       -1.364000           0.399285           12.91245           0.397796           12.89142
       -1.360000           0.400447           12.92840           0.398951           12.90728
       -1.356000           0.401615           12.94438           0.400113           12.92323
       -1.352000           0.402788           12.96042           0.401278           12.93921
       -1.348000           0.403968           12.97651           0.402451           12.95524
       -1.344000           0.405153           12.99264           0.403629           12.97129
       -1.340000           0.406344           13.00883           0.404814           12.98743
       -1.336000           0.407541           13.02505           0.406004           13.00359
       -1.332000           0.408745           13.04132           0.407201           13.01979
       -1.328000           0.409953           13.05764           0.408404           13.03605
       -1.324000           0.411170           13.07402           0.409613           13.05237
       -1.320000           0.412391           13.09044           0.410827           13.06872
       -1.316000           0.413619           13.10690           0.412049           13.08514
       -1.312000           0.414854           13.12342           0.413275           13.10160
       -1.308000           0.416095           13.13999           0.414509           13.11809
       -1.304000           0.417342           13.15660           0.415748           13.13465
       -1.300000           0.418595           13.17326           0.416995           13.15124
       -1.296000           0.419855           13.18999           0.418250           13.16789
       -1.292000           0.421123           13.20675           0.419508           13.18458
       -1.288000           0.422395           13.22357           0.420774           13.20135
       -1.284000           0.423675           13.24042           0.422045           13.21816
       -1.280000           0.424962           13.25733           0.423325           13.23500
       -1.276000           0.426256           13.27430           0.424611           13.25193
