#                                                                     
# :   :::   :::     ::::    ::::  :::::::::   ::::::::                
# :+:   :+: :+: :+:   +:+:+: :+:+:+ :+:    :+: :+:    :+              
#  +:+ +:+ +:+   +:+  +:+ +:+:+ +:+ +:+    +:+ +:+    +:+             
#   +#++: +#++:++#++: +#+  +:+  +#+ +#++:++#+  +#+    +:+             
#    +#+  +#+     +#+ +#+       +#+ +#+    +#+ +#+    +#+             
#    #+#  #+#     #+# #+#       #+# #+#    #+# #+#    #+#             
#    ###  ###     ### ###       ### #########   ########              
#                                                                     
#                                                                     
# Version 5.2.0 Revision 22885 Hash (prev commit) 41fc9d87d4          
#                Branch is phys-dichroism                             
#         MPI+OpenMP+SLK+SLEPC+HDF5_MPI_IO Build                      
#                http://www.yambo-code.org                            
#
# Joint Density of states @ Q(1):   0.00000000     0.999999975E-5   0.00000000    [q->0 direction]
#
# [GEN] GF Energies                               : Perdew, Burke & Ernzerhof(X)+Perdew, Burke & Ernzerhof(C)
# [GEN] Green`s Function                          : Resonant
#
# [GEN] Gauge                                     : Length
# [GEN] [r,Vnl] included                          : yes
#
# DIP band range                                  :   2   6
# DIP band range limits                           :   6   2
# DIP e/h energy range                            :  -1.00000000     -1.00000000    [eV]
# RL vectors in the sum                           :   603
# [r,Vnl] included                                : yes
# Bands ordered                                   : yes
# Direct v evaluation                             : no
# Approach used                                   : G-space v
# Dipoles computed                                : R V P
# Wavefunctions                                   : Perdew, Burke & Ernzerhof(X)+Perdew, Burke & Ernzerhof(C)
#
#
# [K] Identifier                                  :   8810
# [K] Dimension                                   :   694
# [K] Bands                                       :   2   6
# [K] Exchange res                                : yes
# [K] Correlation res                             : no
# [K] Kernel`s coupling                           : no
# [K] Exchange cpl                                : no
# [K] Correlation cpl                             : no
# [K] W interaction is bare                       : no
# [K] ALDA kernel in R-space                      : yes
# [K] RL vectors exchange                         :  1157
# [K] E/h energy range                            :  -1.00000000     -1.00000000    [eV]
# [K] Coupling range                              :   100.000000      100.000000    [o/o]
# [X] Response Kind                               : BAR
#
#
#    E[1] [eV]          Im(jdos)           Re(jdos)           Im(jdos_o)         Re(jdos_o)
#
       -2.000000           0.231422           9.744818           0.230669           9.729330
       -1.996000           0.231915           9.754062           0.231159           9.738568
       -1.992000           0.232410           9.763333           0.231652           9.747820
       -1.988000           0.232907           9.772622           0.232146           9.757072
       -1.984000           0.233405           9.781944           0.232642           9.766364
       -1.980000           0.233905           9.791270           0.233139           9.775661
       -1.976000           0.234407           9.800612           0.233640           9.784941
       -1.972000           0.234911           9.809985           0.234141           9.794300
       -1.968000           0.235416           9.819375           0.234644           9.803667
       -1.964000           0.235924           9.828794           0.235148           9.813041
       -1.960000           0.236432           9.838223           0.235655           9.822455
       -1.956000           0.236943           9.847663           0.236164           9.831862
       -1.952000           0.237456           9.857154           0.236674           9.841308
       -1.948000           0.237971           9.866645           0.237185           9.850765
       -1.944000           0.238487           9.876151           0.237699           9.860271
       -1.940000           0.239006           9.885704           0.238216           9.869781
       -1.936000           0.239526           9.895254           0.238734           9.879292
       -1.932000           0.240048           9.904823           0.239252           9.888841
       -1.928000           0.240572           9.914425           0.239774           9.898374
       -1.924000           0.241098           9.924029           0.240298           9.907980
       -1.920000           0.241626           9.933676           0.240823           9.917588
       -1.916000           0.242155           9.943336           0.241350           9.927214
       -1.912000           0.242687           9.953026           0.241879           9.936888
       -1.908000           0.243221           9.962708           0.242410           9.946518
       -1.904000           0.243756           9.972436           0.242943           9.956211
       -1.900000           0.244294           9.982181           0.243478           9.965940
       -1.896000           0.244833           9.991953           0.244014           9.975680
       -1.892000           0.245375           10.00174           0.244554           9.985409
       -1.888000           0.245918           10.01155           0.245094           9.995198
       -1.884000           0.246463           10.02138           0.245637           10.00502
       -1.880000           0.247011           10.03123           0.246182           10.01480
       -1.876000           0.247561           10.04110           0.246729           10.02467
       -1.872000           0.248112           10.05100           0.247278           10.03453
       -1.868000           0.248666           10.06092           0.247828           10.04438
       -1.864000           0.249221           10.07086           0.248382           10.05432
       -1.860000           0.249779           10.08082           0.248937           10.06424
       -1.856000           0.250339           10.09081           0.249493           10.07419
       -1.852000           0.250901           10.10082           0.250053           10.08420
       -1.848000           0.251465           10.11084           0.250614           10.09416
       -1.844000           0.252031           10.12090           0.251178           10.10418
       -1.840000           0.252599           10.13098           0.251743           10.11425
       -1.836000           0.253169           10.14109           0.252309           10.12428
       -1.832000           0.253743           10.15119           0.252880           10.13438
       -1.828000           0.254317           10.16134           0.253452           10.14449
       -1.824000           0.254894           10.17150           0.254026           10.15461
       -1.820000           0.255473           10.18169           0.254601           10.16475
       -1.816000           0.256055           10.19191           0.255180           10.17491
       -1.812000           0.256638           10.20214           0.255762           10.18513
       -1.808000           0.257224           10.21241           0.256344           10.19537
       -1.804000           0.257812           10.22267           0.256929           10.20562
       -1.800000           0.258402           10.23299           0.257516           10.21588
       -1.796000           0.258995           10.24331           0.258106           10.22618
       -1.792000           0.259590           10.25367           0.258698           10.23650
       -1.788000           0.260186           10.26405           0.259291           10.24683
       -1.784000           0.260786           10.27445           0.259888           10.25720
       -1.780000           0.261387           10.28487           0.260486           10.26760
       -1.776000           0.261992           10.29531           0.261088           10.27799
       -1.772000           0.262598           10.30578           0.261691           10.28843
       -1.768000           0.263206           10.31627           0.262297           10.29889
       -1.764000           0.263817           10.32678           0.262905           10.30941
       -1.760000           0.264431           10.33735           0.263515           10.31989
       -1.756000           0.265047           10.34792           0.264128           10.33043
       -1.752000           0.265665           10.35851           0.264743           10.34098
       -1.748000           0.266286           10.36912           0.265360           10.35154
       -1.744000           0.266909           10.37977           0.265980           10.36219
       -1.740000           0.267534           10.39045           0.266603           10.37284
       -1.736000           0.268163           10.40114           0.267228           10.38345
       -1.732000           0.268793           10.41185           0.267855           10.39414
       -1.728000           0.269426           10.42261           0.268484           10.40485
       -1.724000           0.270061           10.43336           0.269116           10.41556
       -1.720000           0.270700           10.44416           0.269752           10.42631
       -1.716000           0.271340           10.45497           0.270389           10.43709
       -1.712000           0.271983           10.46582           0.271028           10.44792
       -1.708000           0.272629           10.47670           0.271671           10.45872
       -1.704000           0.273277           10.48761           0.272315           10.46963
       -1.700000           0.273928           10.49850           0.272962           10.48049
       -1.696000           0.274581           10.50946           0.273613           10.49140
       -1.692000           0.275238           10.52043           0.274266           10.50235
       -1.688000           0.275896           10.53144           0.274921           10.51331
       -1.684000           0.276558           10.54246           0.275580           10.52427
       -1.680000           0.277222           10.55353           0.276240           10.53531
       -1.676000           0.277888           10.56459           0.276903           10.54636
       -1.672000           0.278557           10.57571           0.277568           10.55742
       -1.668000           0.279230           10.58682           0.278237           10.56851
       -1.664000           0.279904           10.59799           0.278909           10.57963
       -1.660000           0.280582           10.60917           0.279584           10.59077
       -1.656000           0.281262           10.62039           0.280259           10.60194
       -1.652000           0.281946           10.63164           0.280940           10.61315
       -1.648000           0.282632           10.64291           0.281622           10.62438
       -1.644000           0.283320           10.65419           0.282307           10.63563
       -1.640000           0.284012           10.66552           0.282996           10.64691
       -1.636000           0.284706           10.67686           0.283686           10.65823
       -1.632000           0.285404           10.68826           0.284380           10.66957
       -1.628000           0.286104           10.69965           0.285076           10.68096
       -1.624000           0.286807           10.71108           0.285776           10.69233
       -1.620000           0.287513           10.72255           0.286479           10.70376
       -1.616000           0.288222           10.73404           0.287183           10.71519
       -1.612000           0.288934           10.74557           0.287891           10.72666
       -1.608000           0.289649           10.75711           0.288603           10.73817
       -1.604000           0.290367           10.76867           0.289317           10.74970
       -1.600000           0.291088           10.78030           0.290034           10.76128
       -1.596000           0.291811           10.79193           0.290755           10.77284
       -1.592000           0.292539           10.80359           0.291477           10.78449
       -1.588000           0.293269           10.81527           0.292204           10.79612
       -1.584000           0.294003           10.82699           0.292932           10.80780
       -1.580000           0.294739           10.83874           0.293665           10.81950
       -1.576000           0.295479           10.85052           0.294401           10.83124
       -1.572000           0.296221           10.86232           0.295139           10.84304
       -1.568000           0.296966           10.87418           0.295880           10.85481
       -1.564000           0.297715           10.88604           0.296625           10.86659
       -1.560000           0.298467           10.89792           0.297373           10.87845
       -1.556000           0.299223           10.90986           0.298125           10.89037
       -1.552000           0.299981           10.92182           0.298880           10.90226
       -1.548000           0.300743           10.93379           0.299637           10.91420
       -1.544000           0.301508           10.94580           0.300398           10.92618
       -1.540000           0.302276           10.95786           0.301163           10.93823
       -1.536000           0.303048           10.96995           0.301929           10.95023
       -1.532000           0.303823           10.98206           0.302700           10.96229
       -1.528000           0.304602           10.99418           0.303475           10.97438
       -1.524000           0.305384           11.00636           0.304253           10.98650
       -1.520000           0.306169           11.01856           0.305035           10.99868
       -1.516000           0.306958           11.03081           0.305819           11.01083
       -1.512000           0.307749           11.04306           0.306606           11.02306
       -1.508000           0.308545           11.05536           0.307398           11.03534
       -1.504000           0.309344           11.06768           0.308192           11.04760
       -1.500000           0.310147           11.08005           0.308990           11.05992
       -1.496000           0.310953           11.09244           0.309792           11.07229
       -1.492000           0.311763           11.10485           0.310598           11.08463
       -1.488000           0.312576           11.11732           0.311407           11.09707
       -1.484000           0.313394           11.12980           0.312219           11.10950
       -1.480000           0.314214           11.14235           0.313036           11.12200
       -1.476000           0.315038           11.15490           0.313854           11.13447
       -1.472000           0.315867           11.16748           0.314678           11.14701
       -1.468000           0.316698           11.18010           0.315505           11.15958
       -1.464000           0.317534           11.19276           0.316336           11.17222
       -1.460000           0.318373           11.20545           0.317171           11.18480
       -1.456000           0.319216           11.21816           0.318009           11.19751
       -1.452000           0.320063           11.23090           0.318851           11.21025
       -1.448000           0.320913           11.24370           0.319697           11.22298
       -1.444000           0.321767           11.25652           0.320546           11.23575
       -1.440000           0.322626           11.26936           0.321401           11.24855
       -1.436000           0.323488           11.28226           0.322258           11.26138
       -1.432000           0.324355           11.29519           0.323119           11.27427
       -1.428000           0.325225           11.30815           0.323984           11.28718
       -1.424000           0.326099           11.32113           0.324854           11.30008
       -1.420000           0.326978           11.33415           0.325727           11.31306
       -1.416000           0.327859           11.34722           0.326605           11.32607
       -1.412000           0.328746           11.36033           0.327487           11.33915
       -1.408000           0.329637           11.37346           0.328371           11.35223
       -1.404000           0.330531           11.38662           0.329262           11.36537
       -1.400000           0.331429           11.39983           0.330155           11.37849
       -1.396000           0.332333           11.41308           0.331053           11.39169
       -1.392000           0.333240           11.42637           0.331954           11.40491
       -1.388000           0.334152           11.43966           0.332861           11.41817
       -1.384000           0.335067           11.45301           0.333771           11.43152
       -1.380000           0.335986           11.46639           0.334687           11.44479
       -1.376000           0.336911           11.47981           0.335604           11.45819
       -1.372000           0.337840           11.49327           0.336529           11.47162
       -1.368000           0.338773           11.50676           0.337458           11.48499
       -1.364000           0.339710           11.52030           0.338388           11.49850
       -1.360000           0.340653           11.53388           0.339325           11.51203
       -1.356000           0.341599           11.54748           0.340267           11.52562
       -1.352000           0.342549           11.56112           0.341212           11.53916
       -1.348000           0.343506           11.57481           0.342162           11.55279
       -1.344000           0.344466           11.58852           0.343116           11.56648
       -1.340000           0.345431           11.60228           0.344076           11.58019
       -1.336000           0.346399           11.61609           0.345039           11.59393
       -1.332000           0.347374           11.62992           0.346008           11.60769
       -1.328000           0.348353           11.64379           0.346979           11.62148
       -1.324000           0.349336           11.65770           0.347958           11.63537
       -1.320000           0.350324           11.67166           0.348942           11.64928
       -1.316000           0.351318           11.68566           0.349928           11.66321
       -1.312000           0.352315           11.69968           0.350921           11.67721
       -1.308000           0.353319           11.71376           0.351917           11.69122
       -1.304000           0.354326           11.72787           0.352919           11.70528
       -1.300000           0.355339           11.74201           0.353927           11.71939
       -1.296000           0.356357           11.75621           0.354939           11.73350
       -1.292000           0.357380           11.77045           0.355957           11.74766
       -1.288000           0.358407           11.78471           0.356977           11.76187
       -1.284000           0.359440           11.79904           0.358004           11.77612
       -1.280000           0.360479           11.81339           0.359036           11.79041
       -1.276000           0.361522           11.82779           0.360074           11.80480
