#                                                                     
#                                                                     
# Y88b    /   e           e    e      888~~\    ,88~-_                
#  Y88b  /   d8b         d8b  d8b     888   |  d888   \               
#   Y88b/   /Y88b       d888bdY88b    888 _/  88888    |              
#    Y8Y   /  Y88b     / Y88Y Y888b   888  \  88888    |              
#     Y   /____Y88b   /   YY   Y888b  888   |  Y888   /               
#    /   /      Y88b /          Y888b 888__/    `88_-~                
#                                                                     
#                                                                     
# Version 5.2.0 Revision 22427 Hash (prev commit) 49ca835f5           
#           Branch is fixes-alpha-def-issue540                        
#         MPI+OpenMP+SLK+SLEPC+HDF5_MPI_IO Build                      
#               http://www.yambo-code.org                             
#
# Polarizability  ( -<<X>> ) @ Q(1):   1.00000000      0.00000000      0.00000000    [q->0 direction]
#
# Polarizability units: volume
#
# [GEN] GF Energies                               : Perdew, Burke & Ernzerhof(X)+Perdew, Burke & Ernzerhof(C)
# [GEN] Green`s Function                          : Retarded
#
# [GEN] Gauge                                     : Length
# [GEN] [r,Vnl] included                          : yes
#
# DIP band range                                  :  12  18
# DIP band range limits                           :  16  16
# DIP e/h energy range                            :  -1.00000000     -1.00000000    [eV]
# RL vectors in the sum                           :   9999
# [r,Vnl] included                                : yes
# Bands ordered                                   : yes
# Direct v evaluation                             : no
# Approach used                                   : G-space v
# Dipoles computed                                : R V P
# Wavefunctions                                   : Perdew, Burke & Ernzerhof(X)+Perdew, Burke & Ernzerhof(C)
#
#
# [K] Identifier                                  :   7046
# [K] Dimension                                   :  22
# [K] Bands                                       :  12  18
# [K] Exchange res                                : yes
# [K] Correlation res                             : no
# [K] Kernel`s coupling                           : yes
# [K] Exchange cpl                                : yes
# [K] Correlation cpl                             : no
# [K] W interaction is bare                       : no
# [K] ALDA kernel in R-space                      : yes
# [K] RL vectors exchange                         :  2003
# [K] E/h energy range                            :  -1.00000000     -1.00000000    [eV]
# [K] Coupling range                              :   100.000000      100.000000    [o/o]
# [X] Response Kind                               : full
#
#
#    E[1] [eV]          Im(alpha)          Re(alpha)          Im(alpha_o)        Re(alpha_o)
#
       -10.00000          -1.945039          -39.47583          -0.713140          -24.05691
       -9.990000          -1.962560          -39.67042          -0.716698          -24.12832
       -9.980000          -1.980318          -39.86677          -0.720281          -24.20008
       -9.969999          -1.998315          -40.06489          -0.723890          -24.27220
       -9.960000          -2.016559          -40.26480          -0.727526          -24.34468
       -9.950000          -2.035052          -40.46654          -0.731189          -24.41753
       -9.940000          -2.053800          -40.67012          -0.734878          -24.49074
       -9.929999          -2.072807          -40.87558          -0.738594          -24.56433
       -9.920000          -2.092077          -41.08293          -0.742338          -24.63828
       -9.910000          -2.111617          -41.29221          -0.746110          -24.71261
       -9.900000          -2.131430          -41.50343          -0.749909          -24.78731
       -9.889999          -2.151522          -41.71664          -0.753737          -24.86241
       -9.880000          -2.171899          -41.93184          -0.757593          -24.93788
       -9.870000          -2.192565          -42.14909          -0.761479          -25.01373
       -9.860000          -2.213526          -42.36840          -0.765393          -25.08998
       -9.850000          -2.234789          -42.58979          -0.769337          -25.16662
       -9.840000          -2.256358          -42.81330          -0.773310          -25.24364
       -9.830000          -2.278239          -43.03898          -0.777313          -25.32108
       -9.819999          -2.300441          -43.26686          -0.781347          -25.39891
       -9.809999          -2.322966          -43.49693          -0.785411          -25.47715
       -9.799999          -2.345823          -43.72925          -0.789506          -25.55579
       -9.789999          -2.369017          -43.96385          -0.793633          -25.63484
       -9.780000          -2.392556          -44.20077          -0.797791          -25.71431
       -9.770000          -2.416447          -44.44002          -0.801980          -25.79419
       -9.759999          -2.440695          -44.68166          -0.806202          -25.87449
       -9.749999          -2.465310          -44.92572          -0.810457          -25.95521
       -9.740000          -2.490298          -45.17224          -0.814744          -26.03636
       -9.730000          -2.515666          -45.42125          -0.819064          -26.11794
       -9.719999          -2.541423          -45.67279          -0.823418          -26.19995
       -9.709999          -2.567576          -45.92690          -0.827806          -26.28240
       -9.700000          -2.594134          -46.18362          -0.832229          -26.36528
       -9.690000          -2.621106          -46.44298          -0.836685          -26.44862
       -9.679999          -2.648498          -46.70502          -0.841177          -26.53239
       -9.669999          -2.676322          -46.96981          -0.845704          -26.61661
       -9.660000          -2.704585          -47.23737          -0.850267          -26.70130
       -9.650000          -2.733297          -47.50774          -0.854866          -26.78643
       -9.639999          -2.762468          -47.78098          -0.859501          -26.87203
       -9.629999          -2.792108          -48.05712          -0.864173          -26.95808
       -9.620000          -2.822226          -48.33621          -0.868883          -27.04461
       -9.610000          -2.852832          -48.61831          -0.873630          -27.13161
       -9.599999          -2.883939          -48.90344          -0.878415          -27.21909
       -9.590000          -2.915556          -49.19169          -0.883239          -27.30704
       -9.580000          -2.947695          -49.48309          -0.888101          -27.39547
       -9.570000          -2.980366          -49.77768          -0.893003          -27.48440
       -9.559999          -3.013584          -50.07553          -0.897944          -27.57381
       -9.550000          -3.047359          -50.37669          -0.902926          -27.66372
       -9.540000          -3.081704          -50.68120          -0.907948          -27.75413
       -9.530000          -3.116632          -50.98914          -0.913011          -27.84503
       -9.520000          -3.152156          -51.30055          -0.918116          -27.93645
       -9.510000          -3.188291          -51.61552          -0.923263          -28.02838
       -9.500000          -3.225049          -51.93406          -0.928452          -28.12082
       -9.490000          -3.262446          -52.25627          -0.933684          -28.21379
       -9.480000          -3.300497          -52.58220          -0.938959          -28.30727
       -9.470000          -3.339216          -52.91190          -0.944278          -28.40129
       -9.460000          -3.378619          -53.24547          -0.949642          -28.49583
       -9.449999          -3.418727          -53.58299          -0.955051          -28.59092
       -9.440000          -3.459547          -53.92443          -0.960504          -28.68654
       -9.429999          -3.501107          -54.27000          -0.966004          -28.78272
       -9.419999          -3.543417          -54.61967          -0.971549          -28.87944
       -9.409999          -3.586497          -54.97355          -0.977142          -28.97672
       -9.400000          -3.630369          -55.33171          -0.982782          -29.07456
       -9.389999          -3.675048          -55.69422          -0.988470          -29.17296
       -9.379999          -3.720558          -56.06119          -0.994207          -29.27192
       -9.369999          -3.766917          -56.43267          -0.999992          -29.37147
       -9.360000          -3.814147          -56.80876          -1.005827          -29.47159
       -9.349999          -3.862272          -57.18954          -1.011713          -29.57230
       -9.339999          -3.911312          -57.57510          -1.017649          -29.67360
       -9.330000          -3.961292          -57.96554          -1.023636          -29.77549
       -9.320000          -4.012236          -58.36094          -1.029676          -29.87798
       -9.309999          -4.064168          -58.76139          -1.035768          -29.98108
       -9.299999          -4.117115          -59.16700          -1.041913          -30.08478
       -9.290000          -4.171103          -59.57787          -1.048112          -30.18910
       -9.280000          -4.226160          -59.99410          -1.054366          -30.29404
       -9.270000          -4.282314          -60.41578          -1.060674          -30.39961
       -9.259999          -4.339594          -60.84304          -1.067038          -30.50581
       -9.250000          -4.398032          -61.27599          -1.073459          -30.61264
       -9.240000          -4.457657          -61.71472          -1.079936          -30.72011
       -9.230000          -4.518504          -62.15936          -1.086472          -30.82824
       -9.219999          -4.580605          -62.61005          -1.093066          -30.93703
       -9.210000          -4.643994          -63.06688          -1.099719          -31.04646
       -9.200000          -4.708710          -63.52999          -1.106432          -31.15657
       -9.190000          -4.774786          -63.99953          -1.113205          -31.26735
       -9.179999          -4.842265          -64.47560          -1.120040          -31.37880
       -9.170000          -4.911183          -64.95836          -1.126937          -31.49094
       -9.160000          -4.981586          -65.44793          -1.133897          -31.60377
       -9.150000          -5.053512          -65.94450          -1.140920          -31.71730
       -9.140000          -5.127008          -66.44815          -1.148008          -31.83152
       -9.130000          -5.202120          -66.95909          -1.155161          -31.94647
       -9.120000          -5.278894          -67.47746          -1.162380          -32.06212
       -9.110000          -5.357382          -68.00343          -1.169666          -32.17850
       -9.099999          -5.437640          -68.53719          -1.177020          -32.29561
       -9.090000          -5.519701          -69.07880          -1.184441          -32.41344
       -9.079999          -5.603650          -69.62862          -1.191933          -32.53204
       -9.070000          -5.689515          -70.18663          -1.199494          -32.65136
       -9.059999          -5.777385          -70.75321          -1.207127          -32.77147
       -9.049999          -5.867298          -71.32843          -1.214831          -32.89232
       -9.039999          -5.959329          -71.91253          -1.222609          -33.01395
       -9.030000          -6.053543          -72.50571          -1.230461          -33.13635
       -9.020000          -6.150008          -73.10816          -1.238387          -33.25954
       -9.009999          -6.248801          -73.72014          -1.246389          -33.38353
       -8.999999          -6.349993          -74.34186          -1.254468          -33.50831
       -8.990000          -6.453665          -74.97356          -1.262625          -33.63390
       -8.980000          -6.559899          -75.61545          -1.270860          -33.76031
       -8.969999          -6.668777          -76.26781          -1.279175          -33.88754
       -8.959999          -6.780389          -76.93089          -1.287571          -34.01561
       -8.950000          -6.894829          -77.60496          -1.296049          -34.14451
       -8.940000          -7.012193          -78.29028          -1.304610          -34.27427
       -8.929999          -7.132580          -78.98714          -1.313255          -34.40488
       -8.919999          -7.256095          -79.69584          -1.321985          -34.53635
       -8.910000          -7.382848          -80.41667          -1.330802          -34.66870
       -8.900000          -7.512951          -81.14994          -1.339706          -34.80193
       -8.889999          -7.646528          -81.89598          -1.348699          -34.93605
       -8.880000          -7.783697          -82.65513          -1.357781          -35.07107
       -8.870000          -7.924593          -83.42773          -1.366955          -35.20700
       -8.860000          -8.069352          -84.21414          -1.376221          -35.34385
       -8.849999          -8.218113          -85.01474          -1.385581          -35.48162
       -8.840000          -8.371028          -85.82990          -1.395035          -35.62033
       -8.830000          -8.528249          -86.66002          -1.404586          -35.75999
       -8.820000          -8.689946          -87.50553          -1.414234          -35.90060
       -8.809999          -8.856283          -88.36683          -1.423980          -36.04218
       -8.800000          -9.027444          -89.24440          -1.433828          -36.18473
       -8.790000          -9.203615          -90.13865          -1.443776          -36.32827
       -8.780000          -9.384993          -91.05011          -1.453828          -36.47280
       -8.770000          -9.571786          -91.97926          -1.463984          -36.61834
       -8.760000          -9.764210          -92.92661          -1.474246          -36.76490
       -8.750000          -9.962496          -93.89268          -1.484615          -36.91248
       -8.740000          -10.16688          -94.87805          -1.495094          -37.06109
       -8.730000          -10.37764          -95.88339          -1.505684          -37.21077
       -8.720000          -10.59498          -96.90901          -1.516384          -37.36148
       -8.709999          -10.81925          -97.95593          -1.527199          -37.51329
       -8.700000          -11.05067          -99.02441          -1.538128          -37.66616
       -8.690000          -11.28964          -100.1155          -1.549176          -37.82014
       -8.679999          -11.53642          -101.2297          -1.560341          -37.97521
       -8.669999          -11.79137          -102.3677          -1.571627          -38.13141
       -8.659999          -12.05486          -103.5303          -1.583036          -38.28873
       -8.650000          -12.32727          -104.7184          -1.594568          -38.44719
       -8.639999          -12.60901          -105.9328          -1.606226          -38.60681
       -8.629999          -12.90051          -107.1743          -1.618011          -38.76759
       -8.620000          -13.20222          -108.4439          -1.629927          -38.92954
       -8.610000          -13.51463          -109.7425          -1.641973          -39.09270
       -8.599999          -13.83825          -111.0710          -1.654153          -39.25705
       -8.589999          -14.17360          -112.4306          -1.666469          -39.42263
       -8.580000          -14.52128          -113.8224          -1.678922          -39.58943
       -8.570000          -14.88187          -115.2473          -1.691514          -39.75748
       -8.559999          -15.25604          -116.7068          -1.704249          -39.92680
       -8.549999          -15.64448          -118.2019          -1.717127          -40.09738
       -8.540000          -16.04789          -119.7340          -1.730152          -40.26925
       -8.530000          -16.46708          -121.3044          -1.743324          -40.44242
       -8.520000          -16.90286          -122.9147          -1.756648          -40.61691
       -8.509999          -17.35612          -124.5662          -1.770124          -40.79273
       -8.500000          -17.82780          -126.2606          -1.783756          -40.96989
       -8.490000          -18.31891          -127.9995          -1.797546          -41.14843
       -8.480000          -18.83052          -129.7847          -1.811495          -41.32834
       -8.469999          -19.36379          -131.6180          -1.825608          -41.50964
       -8.460000          -19.91994          -133.5014          -1.839886          -41.69236
       -8.450000          -20.50030          -135.4368          -1.854333          -41.87651
       -8.440000          -21.10628          -137.4263          -1.868950          -42.06209
       -8.430000          -21.73940          -139.4724          -1.883740          -42.24914
       -8.420000          -22.40130          -141.5773          -1.898707          -42.43767
       -8.410000          -23.09373          -143.7434          -1.913853          -42.62769
       -8.400000          -23.81858          -145.9736          -1.929181          -42.81923
       -8.390000          -24.57790          -148.2705          -1.944695          -43.01230
       -8.380000          -25.37388          -150.6371          -1.960396          -43.20692
       -8.370000          -26.20892          -153.0766          -1.976289          -43.40310
       -8.360000          -27.08563          -155.5923          -1.992377          -43.60089
       -8.350000          -28.00660          -158.1873          -2.008660          -43.80026
       -8.339999          -28.97515          -160.8660          -2.025147          -44.00129
       -8.329999          -29.99432          -163.6317          -2.041837          -44.20395
       -8.320000          -31.06775          -166.4888          -2.058735          -44.40827
       -8.309999          -32.19931          -169.4417          -2.075844          -44.61428
       -8.299999          -33.39324          -172.4951          -2.093168          -44.82201
       -8.289999          -34.65413          -175.6539          -2.110711          -45.03146
       -8.280000          -35.98703          -178.9234          -2.128476          -45.24267
       -8.270000          -37.39745          -182.3092          -2.146467          -45.45565
       -8.259999          -38.89142          -185.8173          -2.164689          -45.67043
       -8.249999          -40.47560          -189.4540          -2.183144          -45.88704
       -8.240000          -42.15725          -193.2260          -2.201838          -46.10548
       -8.230000          -43.94442          -197.1406          -2.220775          -46.32579
       -8.219999          -45.84596          -201.2054          -2.239958          -46.54799
       -8.209999          -47.87167          -205.4283          -2.259393          -46.77211
       -8.200000          -50.03238          -209.8183          -2.279083          -46.99817
       -8.190000          -52.34010          -214.3844          -2.299034          -47.22620
