#                                                           
#                                                           
# Y88b    /   e           e    e      888~~\    ,88~-_      
#  Y88b  /   d8b         d8b  d8b     888   |  d888   \     
#   Y88b/   /Y88b       d888bdY88b    888 _/  88888    |    
#    Y8Y   /  Y88b     / Y88Y Y888b   888  \  88888    |    
#     Y   /____Y88b   /   YY   Y888b  888   |  Y888   /     
#    /   /      Y88b /          Y888b 888__/    `88_-~      
#                                                           
#                                                           
#       Version 4.3.0 Revision 15649 Hash 3065d5e           
#                  MPI+SLK+OpenMP Build                     
#               http://www.yambo-code.org                   
#
# Absorption @ Q(1) [q->0 direction] :0.5774E-5 0.5774E-5 0.5774E-5
#
#
# - Energies      are  Analyt. E
# - Wavefunctions are Teter 93(XC)
#
# - The Green`s function is Retarded -
# - Using the Length Gauge -
# - [r,Vnl] *is* included -
#
#   BSK|Identifier              :9002
#      |Dimension               :32
#      |Bands                   :7 - 10
#      |Exchange           [res]: yes
#      |Correlation        [res]: yes
#      |Kernel`s coupling       : no
#      |Exchange           [cpl]: no
#      |Correlation        [cpl]: no
#      |W interaction is bare   : no
#      |ALDA kernel in R-space  : no
#      |RL vectors    [exchange]:51
#      |RL vectors [correlation]:51
#      |E/h energy range    [ev]:-1.000000 - -1.000000
#      |Coupling range     [o/o]: 100.0000 -  100.0000
#    W |Interaction is diagonal : no
#      |Matrix size             :51
#      |Bands                   :1 - 60
#      |e/h energy range    [ev]:-1.000000 - -1.000000
#      |Poles              [o/o]: 100.0000
#      |RL vectors in the sum   :3473
#      |[r,Vnl] included        : yes
#      |Field direction         :0.1000E-4  0.000000  0.000000
#      |Coulomb Cutoff          :none
#      |xc-Kernel               :none
#   RIM|RL components      [col]:0
#      |Random points      [col]:0
#
#    E/ev[1]      EPS-Im[2]    EPS-Re[3]    EPSo-Im[4]   EPSo-Re[5]
#
     4.00000      0.22172     13.21901      0.02113      5.75127
     4.01003      0.22555     13.30860      0.02126      5.75977
     4.02005      0.22948     13.39975      0.02139      5.76832
     4.03008      0.23350     13.49249      0.02152      5.77693
     4.04010      0.23764     13.58686      0.02166      5.78558
     4.05013      0.24188     13.68291      0.02179      5.79430
     4.06015      0.24623     13.78068      0.02192      5.80306
     4.07018      0.25070     13.88021      0.02206      5.81188
     4.08020      0.25529     13.98156      0.02220      5.82075
     4.09023      0.26001     14.08477      0.02233      5.82968
     4.10025      0.26485     14.18989      0.02247      5.83866
     4.11028      0.26983     14.29697      0.02261      5.84770
     4.12030      0.27495     14.40607      0.02275      5.85679
     4.13033      0.28021     14.51726      0.02290      5.86595
     4.14035      0.28562     14.63058      0.02304      5.87515
     4.15038      0.29119     14.74609      0.02318      5.88442
     4.16040      0.29692     14.86386      0.02333      5.89375
     4.17043      0.30282     14.98396      0.02347      5.90313
     4.18045      0.30889     15.10646      0.02362      5.91257
     4.19048      0.31514     15.23141      0.02377      5.92207
     4.20050      0.32159     15.35891      0.02392      5.93163
     4.21053      0.32823     15.48903      0.02407      5.94125
     4.22055      0.33507     15.62184      0.02423      5.95094
     4.23058      0.34213     15.75743      0.02438      5.96068
     4.24060      0.34941     15.89589      0.02453      5.97049
     4.25063      0.35692     16.03730      0.02469      5.98036
     4.26065      0.36468     16.18177      0.02485      5.99029
     4.27068      0.37268     16.32938      0.02501      6.00028
     4.28070      0.38095     16.48026      0.02517      6.01034
     4.29073      0.38950     16.63449      0.02533      6.02046
     4.30075      0.39833     16.79220      0.02549      6.03065
     4.31078      0.40746     16.95350      0.02566      6.04091
     4.32080      0.41691     17.11850      0.02582      6.05123
     4.33083      0.42668     17.28736      0.02599      6.06161
     4.34085      0.43680     17.46018      0.02616      6.07207
     4.35088      0.44729     17.63712      0.02633      6.08259
     4.36090      0.45814     17.81832      0.02650      6.09318
     4.37093      0.46940     18.00394      0.02667      6.10384
     4.38095      0.48107     18.19415      0.02685      6.11457
     4.39098      0.49318     18.38910      0.02702      6.12537
     4.40100      0.50574     18.58898      0.02720      6.13624
     4.41103      0.51879     18.79397      0.02738      6.14718
     4.42105      0.53235     19.00427      0.02756      6.15820
     4.43108      0.54644     19.22010      0.02774      6.16929
     4.44110      0.56109     19.44166      0.02793      6.18045
     4.45113      0.57634     19.66919      0.02811      6.19168
     4.46115      0.59221     19.90293      0.02830      6.20299
     4.47118      0.60874     20.14314      0.02849      6.21437
     4.48120      0.62597     20.39008      0.02868      6.22583
     4.49123      0.64393     20.64403      0.02887      6.23737
     4.50125      0.66267     20.90531      0.02906      6.24898
     4.51128      0.68224     21.17423      0.02926      6.26067
     4.52130      0.70268     21.45113      0.02946      6.27245
     4.53133      0.72405     21.73637      0.02966      6.28430
     4.54135      0.74640     22.03032      0.02986      6.29623
     4.55138      0.76980     22.33339      0.03006      6.30824
     4.56140      0.79431     22.64599      0.03026      6.32033
     4.57143      0.82000     22.96861      0.03047      6.33251
     4.58145      0.84696     23.30171      0.03068      6.34477
     4.59148      0.87526     23.64581      0.03089      6.35711
     4.60150      0.90499     24.00147      0.03110      6.36954
     4.61153      0.93626     24.36927      0.03132      6.38205
     4.62155      0.96917     24.74984      0.03153      6.39465
     4.63158      1.00384     25.14385      0.03175      6.40733
     4.64160      1.04039     25.55202      0.03197      6.42011
     4.65163      1.07897     25.97513      0.03219      6.43297
     4.66165      1.11973     26.41401      0.03242      6.44593
     4.67168      1.16284     26.86957      0.03264      6.45897
     4.68170      1.20848     27.34274      0.03287      6.47210
     4.69173      1.25685     27.83458      0.03310      6.48533
     4.70175      1.30818     28.34620      0.03334      6.49865
     4.71178      1.36271     28.87880      0.03357      6.51206
     4.72180      1.42073     29.43373      0.03381      6.52557
     4.73183      1.48254     30.01242      0.03405      6.53917
     4.74185      1.54849     30.61639      0.03429      6.55287
     4.75188      1.61895     31.24735      0.03454      6.56667
     4.76190      1.69438     31.90715      0.03478      6.58057
     4.77193      1.77529     32.59779      0.03503      6.59457
     4.78196      1.86229     33.32148      0.03529      6.60866
     4.79198      1.95609     34.08057      0.03554      6.62286
     4.80200      2.05763     34.87763      0.03580      6.63717
     4.81203      2.16797     35.71504      0.03606      6.65157
    4.822        2.288        36.59       0.3632E-1     6.666   
    4.832        2.416        37.52       0.3659E-1     6.681   
    4.842        2.551        38.50       0.3685E-1     6.695   
    4.852        2.696        39.53       0.3712E-1     6.710   
    4.862        2.855        40.63       0.3740E-1     6.725   
    4.872        3.031        41.79       0.3767E-1     6.740   
    4.882        3.223        43.03       0.3795E-1     6.755   
    4.892        3.436        44.35       0.3823E-1     6.771   
    4.902        3.671        45.75       0.3852E-1     6.786   
    4.912        3.930        47.25       0.3880E-1     6.802   
    4.922        4.218        48.86       0.3910E-1     6.817   
    4.932        4.540        50.58       0.3939E-1     6.833   
    4.942        4.899        52.44       0.3969E-1     6.849   
    4.952        5.303        54.44       0.3998E-1     6.865   
    4.962        5.758        56.61       0.4029E-1     6.881   
    4.972        6.275        58.97       0.4059E-1     6.897   
    4.982        6.864        61.53       0.4090E-1     6.913   
    4.992        7.539        64.34       0.4122E-1     6.930   
    5.003        8.319        67.41       0.4153E-1     6.946   
    5.013        9.225        70.81       0.4185E-1     6.963   
    5.023        10.29        74.57       0.4217E-1     6.980   
    5.033        11.54        78.75       0.4250E-1     6.997   
    5.043        13.04        83.44       0.4283E-1     7.014   
    5.053        14.84        88.72       0.4316E-1     7.031   
    5.063        17.04        94.70       0.4350E-1     7.049   
    5.073        19.77        101.5       0.4384E-1     7.066   
    5.083        23.19        109.4       0.4419E-1     7.084   
    5.093        27.56        118.6       0.4454E-1     7.102   
    5.103        33.26        129.3       0.4489E-1     7.120   
    5.113        40.87        142.0       0.4525E-1     7.138   
    5.123        51.32        157.1       0.4561E-1     7.156   
    5.133        66.10        175.1       0.4597E-1     7.174   
    5.143        87.78        196.7       0.4634E-1     7.193   
    5.153        120.8        221.4       0.4671E-1     7.211   
    5.163        173.0        246.7       0.4709E-1     7.230   
    5.173        256.2        261.4       0.4747E-1     7.249   
    5.183        377.6        232.8       0.4786E-1     7.268   
    5.193        496.5        106.3       0.4825E-1     7.287   
    5.203        500.0       -93.47       0.4864E-1     7.307   
    5.213        383.7       -225.1       0.4904E-1     7.326   
    5.223        260.9       -256.9       0.4945E-1     7.346   
    5.233        176.0       -243.2       0.4985E-1     7.366   
    5.243        122.7       -218.1       0.5027E-1     7.386   
    5.253        88.99       -193.2       0.5069E-1     7.406   
    5.263        66.91       -171.6       0.5111E-1     7.427   
    5.273        51.88       -153.3       0.5154E-1     7.447   
    5.283        41.28       -138.1       0.5197E-1     7.468   
    5.293        33.56       -125.3       0.5241E-1     7.489   
    5.303        27.79       -114.5       0.5286E-1     7.510   
    5.313        23.36       -105.3       0.5331E-1     7.531   
    5.323        19.91       -97.38       0.5376E-1     7.553   
    5.333        17.16       -90.50       0.5422E-1     7.575   
    5.343        14.93       -84.48       0.5469E-1     7.596   
    5.353        13.11       -79.17       0.5516E-1     7.618   
    5.363        11.60       -74.46       0.5564E-1     7.641   
    5.373        10.34       -70.25       0.5613E-1     7.663   
    5.383        9.270       -66.48       0.5662E-1     7.686   
    5.393        8.357       -63.07       0.5711E-1     7.708   
    5.404        7.572       -59.98       0.5762E-1     7.731   
     5.41353      6.89252    -57.16042      0.05812      7.75464
     5.42356      6.30012    -54.58527      0.05864      7.77805
     5.43358      5.78076    -52.22180      0.05916      7.80166
     5.44361      5.32305    -50.04532      0.05969      7.82548
     5.45363      4.91772    -48.03464      0.06023      7.84952
     5.46366      4.55726    -46.17198      0.06077      7.87378
     5.47368      4.23519    -44.44218      0.06132      7.89825
     5.48371      3.94548    -42.83178      0.06188      7.92294
     5.49373      3.68349    -41.32804      0.06244      7.94787
     5.50376      3.44638    -39.92030      0.06302      7.97301
     5.51378      3.23150    -38.59994      0.06360      7.99839
     5.52381      3.03620    -37.35936      0.06418      8.02400
     5.53383      2.85813    -36.19167      0.06478      8.04986
     5.54386      2.69530    -35.09074      0.06538      8.07595
     5.55388      2.54599    -34.05095      0.06599      8.10228
     5.56391      2.40875    -33.06743      0.06661      8.12886
     5.57394      2.28229    -32.13575      0.06724      8.15569
     5.58396      2.16552    -31.25194      0.06788      8.18278
     5.59398      2.05748    -30.41245      0.06853      8.21012
     5.60401      1.95730    -29.61398      0.06918      8.23772
     5.61404      1.86426    -28.85364      0.06984      8.26559
     5.62406      1.77768    -28.12877      0.07052      8.29372
     5.63409      1.69698    -27.43697      0.07120      8.32213
     5.64411      1.62164    -26.77602      0.07189      8.35081
     5.65414      1.55120    -26.14393      0.07260      8.37977
     5.66416      1.48524    -25.53884      0.07331      8.40902
     5.67419      1.42339    -24.95906      0.07403      8.43855
     5.68421      1.36532    -24.40308      0.07477      8.46838
     5.69424      1.31072    -23.86942      0.07551      8.49850
     5.70426      1.25932    -23.35680      0.07626      8.52892
     5.71429      1.21088    -22.86398      0.07703      8.55964
     5.72431      1.16517    -22.38986      0.07781      8.59068
     5.73434      1.12200    -21.93340      0.07860      8.62203
     5.74436      1.08118    -21.49362      0.07940      8.65370
     5.75439      1.04254    -21.06964      0.08021      8.68569
     5.76441      1.00593    -20.66061      0.08103      8.71801
     5.77444      0.97121    -20.26577      0.08187      8.75066
     5.78446      0.93825    -19.88440      0.08272      8.78365
     5.79449      0.90693    -19.51581      0.08358      8.81698
     5.80451      0.87715    -19.15939      0.08446      8.85066
     5.81454      0.84881    -18.81453      0.08535      8.88470
     5.82456      0.82182    -18.48070      0.08625      8.91909
     5.83459      0.79609    -18.15736      0.08717      8.95385
     5.84461      0.77155    -17.84405      0.08810      8.98898
     5.85464      0.74812    -17.54029      0.08905      9.02448
     5.86466      0.72574    -17.24566      0.09001      9.06038
     5.87469      0.70435    -16.95975      0.09099      9.09665
     5.88471      0.68388    -16.68220      0.09198      9.13332
     5.89474      0.66429    -16.41263      0.09299      9.17040
     5.90476      0.64553    -16.15070      0.09402      9.20788
     5.91479      0.62754    -15.89611      0.09506      9.24577
     5.92481      0.61030    -15.64854      0.09612      9.28409
     5.93484      0.59375    -15.40771      0.09719      9.32283
     5.94486      0.57787    -15.17336      0.09829      9.36201
     5.95489      0.56261    -14.94522      0.09940      9.40164
     5.96491      0.54794    -14.72305      0.10053      9.44171
     5.97494      0.53384    -14.50662      0.10169      9.48223
     5.98496      0.52028    -14.29572      0.10286      9.52323
     5.99499      0.50722    -14.09014      0.10405      9.56469
     6.00501      0.49465    -13.88967      0.10526      9.60664
     6.01504      0.48253    -13.69413      0.10649      9.64908
     6.02506      0.47086    -13.50334      0.10774      9.69201
     6.03509      0.45960    -13.31715      0.10902      9.73545
     6.04511      0.44873    -13.13536      0.11032      9.77941
     6.05514      0.43825    -12.95784      0.11164      9.82389
     6.06516      0.42813    -12.78444      0.11298      9.86891
     6.07519      0.41835    -12.61501      0.11435      9.91447
     6.08521      0.40890    -12.44942      0.11574      9.96058
     6.09524      0.39977    -12.28755      0.11716     10.00726
     6.10526      0.39093    -12.12927      0.11861     10.05450
     6.11529      0.38239    -11.97446      0.12008     10.10234
     6.12531      0.37412    -11.82301      0.12158     10.15076
     6.13534      0.36611    -11.67482      0.12310     10.19980
     6.14536      0.35836    -11.52978      0.12466     10.24945
     6.15539      0.35085    -11.38778      0.12624     10.29973
     6.16541      0.34357    -11.24875      0.12786     10.35065
     6.17544      0.33652    -11.11258      0.12950     10.40222
     6.18546      0.32968    -10.97919      0.13118     10.45446
     6.19549      0.32304    -10.84849      0.13289     10.50738
     6.20551      0.31660    -10.72041      0.13463     10.56099
     6.21554      0.31035    -10.59487      0.13641     10.61530
     6.22556      0.30428    -10.47179      0.13822     10.67033
     6.23559      0.29839    -10.35110      0.14007     10.72610
     6.24561      0.29267    -10.23273      0.14196     10.78261
     6.25564      0.28710    -10.11662      0.14388     10.83989
     6.26566      0.28170    -10.00271      0.14584     10.89795
     6.27569      0.27644     -9.89093      0.14785     10.95680
     6.28571      0.27133     -9.78122      0.14989     11.01646
     6.29574      0.26636     -9.67354      0.15198     11.07694
     6.30576      0.26152     -9.56781      0.15411     11.13828
     6.31579      0.25681     -9.46399      0.15629     11.20047
     6.32581      0.25223     -9.36204      0.15851     11.26354
     6.33584      0.24777     -9.26189      0.16078     11.32752
     6.34586      0.24342     -9.16351      0.16310     11.39242
     6.35589      0.23919     -9.06684      0.16546     11.45825
     6.36591      0.23506     -8.97184      0.16789     11.52504
     6.37594      0.23104     -8.87848      0.17036     11.59281
     6.38596      0.22712     -8.78670      0.17289     11.66159
     6.39599      0.22330     -8.69647      0.17547     11.73139
     6.40602      0.21958     -8.60775      0.17812     11.80223
     6.41604      0.21594     -8.52051      0.18082     11.87414
     6.42607      0.21240     -8.43470      0.18359     11.94715
     6.43609      0.20894     -8.35029      0.18642     12.02129
     6.44612      0.20556     -8.26726      0.18932     12.09656
     6.45614      0.20227     -8.18556      0.19228     12.17301
     6.46617      0.19905     -8.10516      0.19531     12.25067
     6.47619      0.19591     -8.02604      0.19842     12.32954
     6.48622      0.19284     -7.94815      0.20160     12.40968
     6.49624      0.18984     -7.87149      0.20486     12.49111
     6.50627      0.18691     -7.79601      0.20820     12.57386
     6.51629      0.18405     -7.72169      0.21162     12.65797
     6.52632      0.18125     -7.64850      0.21513     12.74345
     6.53634      0.17851     -7.57642      0.21872     12.83037
     6.54637      0.17584     -7.50543      0.22241     12.91873
     6.55639      0.17322     -7.43549      0.22619     13.00859
     6.56642      0.17066     -7.36659      0.23006     13.09999
     6.57644      0.16816     -7.29870      0.23404     13.19295
     6.58647      0.16571     -7.23181      0.23813     13.28753
     6.59649      0.16331     -7.16588      0.24232     13.38376
     6.60652      0.16097     -7.10091      0.24662     13.48170
     6.61654      0.15867     -7.03686      0.25104     13.58138
     6.62657      0.15643     -6.97373      0.25558     13.68285
     6.63659      0.15423     -6.91148      0.26024     13.78616
     6.64662      0.15207     -6.85011      0.26503     13.89136
     6.65664      0.14996     -6.78959      0.26996     13.99851
     6.66667      0.14789     -6.72990      0.27503     14.10766
     6.67669      0.14587     -6.67104      0.28024     14.21886
     6.68672      0.14388     -6.61298      0.28561     14.33218
     6.69674      0.14194     -6.55570      0.29112     14.44768
     6.70677      0.14003     -6.49920      0.29681     14.56542
     6.71679      0.13816     -6.44346      0.30266     14.68547
     6.72682      0.13633     -6.38845      0.30869     14.80789
     6.73684      0.13454     -6.33417      0.31490     14.93275
