#                                                           
#  ____  ____     _       ____    ____  ______      ___     
# |_  _||_  _|   / \     |_   \  /   _||_   _ \   ."   `.   
#   \ \  / /    / _ \      |   \/   |    | |_) | /  .-.  \  
#    \ \/ /    / ___ \     | |\  /| |    |  __". | |   | |  
#    _|  |_  _/ /   \ \_  _| |_\/_| |_  _| |__) |\  `-"  /  
#   |______||____| |____||_____||_____||_______/  `.___."   
#                                                           
#                                                           
#                                                           
#        Version 4.3.0 Revision 15733 Hash 064c1fb          
#                   MPI+SLK+OpenMP Build                    
#                http://www.yambo-code.org                  
#
# Absorption @ Q(1) [q->0 direction] :0.5774E-5 0.5774E-5 0.5774E-5
#
#
# - Energies      are  Analyt. E
# - Wavefunctions are Teter 93(XC)
#
# - The Green`s function is Retarded -
# - Using the Length Gauge -
# - [r,Vnl] *is* included -
#
#
#    E/ev[1]      EPS-Im[2]    EPS-Re[3]    EPSo-Im[4]   EPSo-Re[5]
#
     4.00000      0.22305     13.49743      0.02113      5.75127
     4.01003      0.22689     13.58756      0.02126      5.75977
     4.02005      0.23082     13.67925      0.02139      5.76832
     4.03008      0.23486     13.77253      0.02152      5.77693
     4.04010      0.23900     13.86744      0.02166      5.78558
     4.05013      0.24325     13.96404      0.02179      5.79430
     4.06015      0.24761     14.06236      0.02192      5.80306
     4.07018      0.25209     14.16245      0.02206      5.81188
     4.08020      0.25669     14.26435      0.02220      5.82075
     4.09023      0.26141     14.36812      0.02233      5.82968
     4.10025      0.26627     14.47381      0.02247      5.83866
     4.11028      0.27125     14.58146      0.02261      5.84770
     4.12030      0.27638     14.69114      0.02275      5.85679
     4.13033      0.28165     14.80290      0.02290      5.86595
     4.14035      0.28707     14.91680      0.02304      5.87515
     4.15038      0.29265     15.03290      0.02318      5.88442
     4.16040      0.29839     15.15126      0.02333      5.89375
     4.17043      0.30430     15.27195      0.02347      5.90313
     4.18045      0.31038     15.39504      0.02362      5.91257
     4.19048      0.31664     15.52060      0.02377      5.92207
     4.20050      0.32310     15.64870      0.02392      5.93163
     4.21053      0.32975     15.77942      0.02407      5.94125
     4.22055      0.33660     15.91285      0.02423      5.95094
     4.23058      0.34367     16.04906      0.02438      5.96068
     4.24060      0.35096     16.18813      0.02453      5.97049
     4.25063      0.35848     16.33017      0.02469      5.98036
     4.26065      0.36625     16.47527      0.02485      5.99029
     4.27068      0.37427     16.62351      0.02501      6.00028
     4.28070      0.38255     16.77502      0.02517      6.01034
     4.29073      0.39110     16.92990      0.02533      6.02046
     4.30075      0.39995     17.08825      0.02549      6.03065
     4.31078      0.40909     17.25020      0.02566      6.04091
     4.32080      0.41855     17.41586      0.02582      6.05123
     4.33083      0.42833     17.58537      0.02599      6.06161
     4.34085      0.43847     17.75886      0.02616      6.07207
     4.35088      0.44896     17.93647      0.02633      6.08259
     4.36090      0.45983     18.11835      0.02650      6.09318
     4.37093      0.47110     18.30465      0.02667      6.10384
     4.38095      0.48278     18.49553      0.02685      6.11457
     4.39098      0.49490     18.69117      0.02702      6.12537
     4.40100      0.50748     18.89174      0.02720      6.13624
     4.41103      0.52054     19.09742      0.02738      6.14718
     4.42105      0.53411     19.30844      0.02756      6.15820
     4.43108      0.54821     19.52497      0.02774      6.16929
     4.44110      0.56287     19.74724      0.02793      6.18045
     4.45113      0.57813     19.97548      0.02811      6.19168
     4.46115      0.59401     20.20995      0.02830      6.20299
     4.47118      0.61056     20.45088      0.02849      6.21437
     4.48120      0.62780     20.69855      0.02868      6.22583
     4.49123      0.64577     20.95324      0.02887      6.23737
     4.50125      0.66453     21.21527      0.02906      6.24898
     4.51128      0.68411     21.48494      0.02926      6.26067
     4.52130      0.70457     21.76259      0.02946      6.27245
     4.53133      0.72595     22.04859      0.02966      6.28430
     4.54135      0.74832     22.34330      0.02986      6.29623
     4.55138      0.77173     22.64714      0.03006      6.30824
     4.56140      0.79625     22.96051      0.03026      6.32033
     4.57143      0.82196     23.28391      0.03047      6.33251
     4.58145      0.84893     23.61780      0.03068      6.34477
     4.59148      0.87724     23.96269      0.03089      6.35711
     4.60150      0.90699     24.31915      0.03110      6.36954
     4.61153      0.93827     24.68776      0.03132      6.38205
     4.62155      0.97119     25.06913      0.03153      6.39465
     4.63158      1.00588     25.46396      0.03175      6.40733
     4.64160      1.04245     25.87295      0.03197      6.42011
     4.65163      1.08104     26.29690      0.03219      6.43297
     4.66165      1.12182     26.73661      0.03242      6.44593
     4.67168      1.16494     27.19300      0.03264      6.45897
     4.68170      1.21060     27.66702      0.03287      6.47210
     4.69173      1.25899     28.15971      0.03310      6.48533
     4.70175      1.31033     28.67220      0.03334      6.49865
     4.71178      1.36489     29.20566      0.03357      6.51206
     4.72180      1.42292     29.76148      0.03381      6.52557
     4.73183      1.48475     30.34104      0.03405      6.53917
     4.74185      1.55071     30.94590      0.03429      6.55287
     4.75188      1.62119     31.57775      0.03454      6.56667
     4.76190      1.69664     32.23845      0.03478      6.58057
     4.77193      1.77757     32.93000      0.03503      6.59457
     4.78196      1.86458     33.65461      0.03529      6.60866
     4.79198      1.95840     34.41463      0.03554      6.62286
     4.80200      2.05996     35.21261      0.03580      6.63717
     4.81203      2.17032     36.05096      0.03606      6.65157
    4.822        2.290        36.93       0.3632E-1     6.666   
    4.832        2.418        37.86       0.3659E-1     6.681   
    4.842        2.554        38.83       0.3685E-1     6.695   
    4.852        2.699        39.87       0.3712E-1     6.710   
    4.862        2.858        40.97       0.3740E-1     6.725   
    4.872        3.033        42.13       0.3767E-1     6.740   
    4.882        3.226        43.37       0.3795E-1     6.755   
    4.892        3.438        44.69       0.3823E-1     6.771   
    4.902        3.673        46.10       0.3852E-1     6.786   
    4.912        3.933        47.60       0.3880E-1     6.802   
    4.922        4.221        49.21       0.3910E-1     6.817   
    4.932        4.542        50.93       0.3939E-1     6.833   
    4.942        4.902        52.79       0.3969E-1     6.849   
    4.952        5.305        54.79       0.3998E-1     6.865   
    4.962        5.761        56.96       0.4029E-1     6.881   
    4.972        6.277        59.32       0.4059E-1     6.897   
    4.982        6.866        61.88       0.4090E-1     6.913   
    4.992        7.542        64.69       0.4122E-1     6.930   
    5.003        8.322        67.77       0.4153E-1     6.946   
    5.013        9.228        71.16       0.4185E-1     6.963   
    5.023        10.29        74.93       0.4217E-1     6.980   
    5.033        11.54        79.11       0.4250E-1     6.997   
    5.043        13.04        83.80       0.4283E-1     7.014   
    5.053        14.85        89.08       0.4316E-1     7.031   
    5.063        17.05        95.07       0.4350E-1     7.049   
    5.073        19.77        101.9       0.4384E-1     7.066   
    5.083        23.19        109.8       0.4419E-1     7.084   
    5.093        27.56        118.9       0.4454E-1     7.102   
    5.103        33.27        129.7       0.4489E-1     7.120   
    5.113        40.88        142.3       0.4525E-1     7.138   
    5.123        51.32        157.4       0.4561E-1     7.156   
    5.133        66.11        175.5       0.4597E-1     7.174   
    5.143        87.79        197.0       0.4634E-1     7.193   
    5.153        120.9        221.8       0.4671E-1     7.211   
    5.163        173.1        247.1       0.4709E-1     7.230   
    5.173        256.2        261.8       0.4747E-1     7.249   
    5.183        377.6        233.1       0.4786E-1     7.268   
    5.193        496.5        106.6       0.4825E-1     7.287   
    5.203        500.0       -93.13       0.4864E-1     7.307   
    5.213        383.6       -224.7       0.4904E-1     7.326   
    5.223        260.8       -256.5       0.4945E-1     7.346   
    5.233        176.0       -242.8       0.4985E-1     7.366   
    5.243        122.7       -217.7       0.5027E-1     7.386   
    5.253        88.99       -192.8       0.5069E-1     7.406   
    5.263        66.91       -171.2       0.5111E-1     7.427   
    5.273        51.88       -152.9       0.5154E-1     7.447   
    5.283        41.28       -137.7       0.5197E-1     7.468   
    5.293        33.56       -124.9       0.5241E-1     7.489   
    5.303        27.79       -114.1       0.5286E-1     7.510   
    5.313        23.37       -104.9       0.5331E-1     7.531   
    5.323        19.91       -96.99       0.5376E-1     7.553   
    5.333        17.16       -90.10       0.5422E-1     7.575   
    5.343        14.94       -84.08       0.5469E-1     7.596   
    5.353        13.12       -78.77       0.5516E-1     7.618   
    5.363        11.61       -74.06       0.5564E-1     7.641   
    5.373        10.34       -69.85       0.5613E-1     7.663   
    5.383        9.273       -66.07       0.5662E-1     7.686   
    5.393        8.361       -62.66       0.5711E-1     7.708   
    5.404        7.576       -59.57       0.5762E-1     7.731   
     5.41353      6.89631    -56.75160      0.05812      7.75464
     5.42356      6.30396    -54.17492      0.05864      7.77805
     5.43358      5.78465    -51.80990      0.05916      7.80166
     5.44361      5.32699    -49.63187      0.05969      7.82548
     5.45363      4.92171    -47.61959      0.06023      7.84952
     5.46366      4.56130    -45.75532      0.06077      7.87378
     5.47368      4.23927    -44.02388      0.06132      7.89825
     5.48371      3.94961    -42.41183      0.06188      7.92294
     5.49373      3.68767    -40.90644      0.06244      7.94787
     5.50376      3.45060    -39.49701      0.06302      7.97301
     5.51378      3.23577    -38.17497      0.06360      7.99839
     5.52381      3.04051    -36.93266      0.06418      8.02400
     5.53383      2.86249    -35.76322      0.06478      8.04986
     5.54386      2.69971    -34.66053      0.06538      8.07595
     5.55388      2.55045    -33.61898      0.06599      8.10228
     5.56391      2.41325    -32.63367      0.06661      8.12886
     5.57394      2.28684    -31.70016      0.06724      8.15569
     5.58396      2.17012    -30.81453      0.06788      8.18278
     5.59398      2.06213    -29.97318      0.06853      8.21012
     5.60401      1.96201    -29.17283      0.06918      8.23772
     5.61404      1.86901    -28.41060      0.06984      8.26559
     5.62406      1.78248    -27.68382      0.07052      8.29372
     5.63409      1.70183    -26.99008      0.07120      8.32213
     5.64411      1.62655    -26.32718      0.07189      8.35081
     5.65414      1.55616    -25.69311      0.07260      8.37977
     5.66416      1.49026    -25.08601      0.07331      8.40902
     5.67419      1.42846    -24.50422      0.07403      8.43855
     5.68421      1.37045    -23.94620      0.07477      8.46838
     5.69424      1.31590    -23.41047      0.07551      8.49850
     5.70426      1.26456    -22.89575      0.07626      8.52892
     5.71429      1.21618    -22.40082      0.07703      8.55964
     5.72431      1.17053    -21.92456      0.07781      8.59068
     5.73434      1.12743    -21.46595      0.07860      8.62203
     5.74436      1.08666    -21.02398      0.07940      8.65370
     5.75439      1.04809    -20.59778      0.08021      8.68569
     5.76441      1.01154    -20.18652      0.08103      8.71801
     5.77444      0.97688    -19.78942      0.08187      8.75066
     5.78446      0.94399    -19.40575      0.08272      8.78365
     5.79449      0.91274    -19.03486      0.08358      8.81698
     5.80451      0.88303    -18.67610      0.08446      8.85066
     5.81454      0.85476    -18.32887      0.08535      8.88470
     5.82456      0.82784    -17.99264      0.08625      8.91909
     5.83459      0.80218    -17.66687      0.08717      8.95385
     5.84461      0.77771    -17.35111      0.08810      8.98898
     5.85464      0.75436    -17.04487      0.08905      9.02448
     5.86466      0.73205    -16.74773      0.09001      9.06038
     5.87469      0.71073    -16.45927      0.09099      9.09665
     5.88471      0.69034    -16.17915      0.09198      9.13332
     5.89474      0.67083    -15.90697      0.09299      9.17040
     5.90476      0.65215    -15.64240      0.09402      9.20788
     5.91479      0.63425    -15.38514      0.09506      9.24577
     5.92481      0.61709    -15.13486      0.09612      9.28409
     5.93484      0.60063    -14.89129      0.09719      9.32283
     5.94486      0.58483    -14.65416      0.09829      9.36201
     5.95489      0.56966    -14.42321      0.09940      9.40164
     5.96491      0.55509    -14.19820      0.10053      9.44171
     5.97494      0.54108    -13.97889      0.10169      9.48223
     5.98496      0.52760    -13.76507      0.10286      9.52323
     5.99499      0.51464    -13.55654      0.10405      9.56469
     6.00501      0.50217    -13.35308      0.10526      9.60664
     6.01504      0.49015    -13.15450      0.10649      9.64908
     6.02506      0.47858    -12.96064      0.10774      9.69201
     6.03509      0.46742    -12.77133      0.10902      9.73545
     6.04511      0.45666    -12.58638      0.11032      9.77941
     6.05514      0.44629    -12.40567      0.11164      9.82389
     6.06516      0.43627    -12.22902      0.11298      9.86891
     6.07519      0.42661    -12.05630      0.11435      9.91447
     6.08521      0.41727    -11.88738      0.11574      9.96058
     6.09524      0.40826    -11.72213      0.11716     10.00726
     6.10526      0.39954    -11.56042      0.11861     10.05450
     6.11529      0.39112    -11.40214      0.12008     10.10234
     6.12531      0.38297    -11.24717      0.12158     10.15076
     6.13534      0.37509    -11.09540      0.12310     10.19980
     6.14536      0.36747    -10.94673      0.12466     10.24945
     6.15539      0.36009    -10.80106      0.12624     10.29973
     6.16541      0.35295    -10.65830      0.12786     10.35065
     6.17544      0.34603    -10.51834      0.12950     10.40222
     6.18546      0.33933    -10.38111      0.13118     10.45446
     6.19549      0.33284    -10.24651      0.13289     10.50738
     6.20551      0.32655    -10.11448      0.13463     10.56099
     6.21554      0.32045     -9.98491      0.13641     10.61530
     6.22556      0.31454     -9.85776      0.13822     10.67033
     6.23559      0.30880     -9.73293      0.14007     10.72610
     6.24561      0.30324     -9.61036      0.14196     10.78261
     6.25564      0.29784     -9.48998      0.14388     10.83989
     6.26566      0.29261     -9.37173      0.14584     10.89795
     6.27569      0.28752     -9.25554      0.14785     10.95680
     6.28571      0.28259     -9.14136      0.14989     11.01646
     6.29574      0.27780     -9.02913      0.15198     11.07694
     6.30576      0.27315     -8.91878      0.15411     11.13828
     6.31579      0.26863     -8.81027      0.15629     11.20047
     6.32581      0.26424     -8.70354      0.15851     11.26354
     6.33584      0.25998     -8.59854      0.16078     11.32752
     6.34586      0.25584     -8.49522      0.16310     11.39242
     6.35589      0.25182     -8.39353      0.16546     11.45825
     6.36591      0.24791     -8.29343      0.16789     11.52504
     6.37594      0.24411     -8.19488      0.17036     11.59281
     6.38596      0.24042     -8.09782      0.17289     11.66159
     6.39599      0.23683     -8.00222      0.17547     11.73139
     6.40602      0.23334     -7.90804      0.17812     11.80223
     6.41604      0.22995     -7.81523      0.18082     11.87414
     6.42607      0.22666     -7.72376      0.18359     11.94715
     6.43609      0.22346     -7.63358      0.18642     12.02129
     6.44612      0.22035     -7.54468      0.18932     12.09656
     6.45614      0.21733     -7.45700      0.19228     12.17301
     6.46617      0.21439     -7.37051      0.19531     12.25067
     6.47619      0.21154     -7.28518      0.19842     12.32954
     6.48622      0.20877     -7.20098      0.20160     12.40968
     6.49624      0.20607     -7.11787      0.20486     12.49111
     6.50627      0.20346     -7.03583      0.20820     12.57386
     6.51629      0.20092     -6.95481      0.21162     12.65797
     6.52632      0.19846     -6.87480      0.21513     12.74345
     6.53634      0.19606     -6.79576      0.21872     12.83037
     6.54637      0.19374     -6.71767      0.22241     12.91873
     6.55639      0.19149     -6.64049      0.22619     13.00859
     6.56642      0.18931     -6.56419      0.23006     13.09999
     6.57644      0.18720     -6.48876      0.23404     13.19295
     6.58647      0.18515     -6.41416      0.23813     13.28753
     6.59649      0.18317     -6.34037      0.24232     13.38376
     6.60652      0.18125     -6.26736      0.24662     13.48170
     6.61654      0.17939     -6.19510      0.25104     13.58138
     6.62657      0.17760     -6.12358      0.25558     13.68285
     6.63659      0.17587     -6.05276      0.26024     13.78616
     6.64662      0.17420     -5.98263      0.26503     13.89136
     6.65664      0.17260     -5.91314      0.26996     13.99851
     6.66667      0.17105     -5.84429      0.27503     14.10766
     6.67669      0.16956     -5.77605      0.28024     14.21886
     6.68672      0.16814     -5.70839      0.28561     14.33218
     6.69674      0.16677     -5.64130      0.29112     14.44768
     6.70677      0.16546     -5.57473      0.29681     14.56542
     6.71679      0.16422     -5.50868      0.30266     14.68547
     6.72682      0.16303     -5.44312      0.30869     14.80789
     6.73684      0.16190     -5.37803      0.31490     14.93275
     6.74687      0.16084     -5.31337      0.32130     15.06014
     6.75689      0.15983     -5.24913      0.32790     15.19013
     6.76692      0.15888     -5.18528      0.33470     15.32280
     6.77694      0.15800     -5.12180      0.34173     15.45823
     6.78697      0.15718     -5.05866      0.34898     15.59651
     6.79699      0.15643     -4.99584      0.35646     15.73775
     6.80702      0.15574     -4.93330      0.36419     15.88203
     6.81704      0.15511     -4.87103      0.37218     16.02944
     6.82707      0.15456     -4.80900      0.38043     16.18010
     6.83709      0.15407     -4.74718      0.38897     16.33412
     6.84712      0.15365     -4.68555      0.39780     16.49162
     6.85714      0.15331     -4.62407      0.40693     16.65269
     6.86717      0.15304     -4.56271      0.41639     16.81748
     6.87719      0.15285     -4.50145      0.42619     16.98612
     6.88722      0.15274     -4.44025      0.43634     17.15874
     6.89724      0.15271     -4.37908      0.44686     17.33550
