#                                                           
# ooooo   oooo ..     ooo        ooo ooooooooo.    .oooo.   
#  `88.   .8" .88.    `88.       .88 `88"   `Y8b  dP"  `Yb  
#   `88. .8" .8"88.    888b     d"88  88     888 88      88 
#    `88.8" .8" `88.   8 Y88. .P  88  88oooo888" 88      88 
#     `88" .88ooo888.  8  `888"   88  88    `88b 88      88 
#      88 .8"     `88. 8    Y     88  88    .88P `8b    d8" 
#     o88o88o      888o8          88 o88bood8P"   `Ybod8P"  
#                                                           
#                                                           
#         Version 4.3.0 Revision 15649 Hash 3065d5e         
#                   MPI+SLK+OpenMP Build                    
#                 http://www.yambo-code.org                 
#
# EELS @ Q(1)  [q->0 direction]:0.5774E-5 0.5774E-5 0.5774E-5
#
#
# - Energies      are  Analyt. E
# - Wavefunctions are Teter 93(XC)
#
# - The Green`s function is Retarded -
# - Using the Length Gauge -
# - [r,Vnl] *is* included -
#
#   BSK|Identifier              :4177
#      |Dimension               :32
#      |Bands                   :7 - 10
#      |Exchange           [res]: yes
#      |Correlation        [res]: yes
#      |Kernel`s coupling       : no
#      |Exchange           [cpl]: no
#      |Correlation        [cpl]: no
#      |W interaction is bare   : no
#      |ALDA kernel in R-space  : no
#      |RL vectors    [exchange]:51
#      |RL vectors [correlation]:51
#      |E/h energy range    [ev]:-1.000000 - -1.000000
#      |Coupling range     [o/o]: 100.0000 -  100.0000
#    W |Interaction is diagonal : no
#      |Matrix size             :51
#      |Bands                   :1 - 60
#      |e/h energy range    [ev]:-1.000000 - -1.000000
#      |Poles              [o/o]: 100.0000
#      |RL vectors in the sum   :3473
#      |[r,Vnl] included        : yes
#      |Field direction         :0.1000E-4  0.000000  0.000000
#      |Coulomb Cutoff          :none
#      |xc-Kernel               :none
#   RIM|RL components      [col]:0
#      |Random points      [col]:0
#
#    E/ev[1]      EEL-Im[2]    EEL-Re[3]    EELo-Im[4]   EELo-Re[5]
#
    4.000       0.7535E-3    -.8116       0.6389E-3    -.1739   
    4.010       0.7578E-3    -.8113       0.6409E-3    -.1736   
    4.020       0.7622E-3    -.8110       0.6429E-3    -.1734   
    4.030       0.7666E-3    -.8107       0.6450E-3    -.1731   
    4.040       0.7710E-3    -.8104       0.6470E-3    -.1728   
    4.050       0.7754E-3    -.8101       0.6490E-3    -.1726   
    4.060       0.7799E-3    -.8098       0.6510E-3    -.1723   
    4.070       0.7844E-3    -.8094       0.6531E-3    -.1721   
    4.080       0.7889E-3    -.8091       0.6551E-3    -.1718   
    4.090       0.7935E-3    -.8088       0.6572E-3    -.1715   
    4.100       0.7981E-3    -.8085       0.6592E-3    -.1713   
    4.110       0.8027E-3    -.8082       0.6613E-3    -.1710   
    4.120       0.8074E-3    -.8078       0.6633E-3    -.1707   
    4.130       0.8121E-3    -.8075       0.6654E-3    -.1705   
    4.140       0.8168E-3    -.8072       0.6674E-3    -.1702   
    4.150       0.8216E-3    -.8069       0.6695E-3    -.1699   
    4.160       0.8264E-3    -.8065       0.6716E-3    -.1697   
    4.170       0.8313E-3    -.8062       0.6736E-3    -.1694   
    4.180       0.8361E-3    -.8059       0.6757E-3    -.1691   
    4.190       0.8410E-3    -.8055       0.6778E-3    -.1689   
    4.201       0.8460E-3    -.8052       0.6799E-3    -.1686   
    4.211       0.8510E-3    -.8049       0.6820E-3    -.1683   
    4.221       0.8560E-3    -.8045       0.6841E-3    -.1680   
    4.231       0.8611E-3    -.8042       0.6861E-3    -.1678   
    4.241       0.8662E-3    -.8038       0.6882E-3    -.1675   
    4.251       0.8713E-3    -.8035       0.6903E-3    -.1672   
    4.261       0.8765E-3    -.8031       0.6925E-3    -.1669   
    4.271       0.8817E-3    -.8028       0.6946E-3    -.1667   
    4.281       0.8869E-3    -.8024       0.6967E-3    -.1664   
    4.291       0.8922E-3    -.8021       0.6988E-3    -.1661   
    4.301       0.8975E-3    -.8017       0.7009E-3    -.1658   
    4.311       0.9029E-3    -.8013       0.7030E-3    -.1655   
    4.321       0.9083E-3    -.8010       0.7052E-3    -.1653   
    4.331       0.9138E-3    -.8006       0.7073E-3    -.1650   
    4.341       0.9193E-3    -.8002       0.7095E-3    -.1647   
    4.351       0.9248E-3    -.7999       0.7116E-3    -.1644   
    4.361       0.9304E-3    -.7995       0.7137E-3    -.1641   
    4.371       0.9360E-3    -.7991       0.7159E-3    -.1638   
    4.381       0.9417E-3    -.7988       0.7181E-3    -.1635   
    4.391       0.9474E-3    -.7984       0.7202E-3    -.1633   
    4.401       0.9531E-3    -.7980       0.7224E-3    -.1630   
    4.411       0.9589E-3    -.7976       0.7245E-3    -.1627   
    4.421       0.9648E-3    -.7972       0.7267E-3    -.1624   
    4.431       0.9707E-3    -.7968       0.7289E-3    -.1621   
    4.441       0.9766E-3    -.7964       0.7311E-3    -.1618   
    4.451       0.9826E-3    -.7961       0.7333E-3    -.1615   
    4.461       0.9886E-3    -.7957       0.7354E-3    -.1612   
    4.471       0.9947E-3    -.7953       0.7376E-3    -.1609   
    4.481       0.1001E-2    -.7949       0.7398E-3    -.1606   
    4.491       0.1007E-2    -.7945       0.7420E-3    -.1603   
    4.501       0.1013E-2    -.7941       0.7443E-3    -.1600   
    4.511       0.1020E-2    -.7936       0.7465E-3    -.1597   
    4.521       0.1026E-2    -.7932       0.7487E-3    -.1594   
    4.531       0.1032E-2    -.7928       0.7509E-3    -.1591   
    4.541       0.1039E-2    -.7924       0.7531E-3    -.1588   
    4.551       0.1045E-2    -.7920       0.7554E-3    -.1585   
    4.561       0.1052E-2    -.7916       0.7576E-3    -.1582   
    4.571       0.1058E-2    -.7911       0.7598E-3    -.1579   
    4.581       0.1065E-2    -.7907       0.7621E-3    -.1576   
    4.591       0.1072E-2    -.7903       0.7643E-3    -.1573   
    4.602       0.1078E-2    -.7899       0.7666E-3    -.1570   
    4.612       0.1085E-2    -.7894       0.7688E-3    -.1567   
    4.622       0.1092E-2    -.7890       0.7711E-3    -.1564   
    4.632       0.1099E-2    -.7886       0.7734E-3    -.1561   
    4.642       0.1106E-2    -.7881       0.7756E-3    -.1558   
    4.652       0.1113E-2    -.7877       0.7779E-3    -.1554   
    4.662       0.1120E-2    -.7872       0.7802E-3    -.1551   
    4.672       0.1127E-2    -.7868       0.7825E-3    -.1548   
    4.682       0.1135E-2    -.7863       0.7848E-3    -.1545   
    4.692       0.1142E-2    -.7859       0.7870E-3    -.1542   
    4.702       0.1149E-2    -.7854       0.7893E-3    -.1539   
    4.712       0.1157E-2    -.7849       0.7917E-3    -.1536   
    4.722       0.1164E-2    -.7845       0.7940E-3    -.1532   
    4.732       0.1172E-2    -.7840       0.7963E-3    -.1529   
    4.742       0.1179E-2    -.7835       0.7986E-3    -.1526   
    4.752       0.1187E-2    -.7831       0.8009E-3    -.1523   
    4.762       0.1195E-2    -.7826       0.8032E-3    -.1520   
    4.772       0.1203E-2    -.7821       0.8056E-3    -.1516   
    4.782       0.1210E-2    -.7816       0.8079E-3    -.1513   
    4.792       0.1218E-2    -.7811       0.8103E-3    -.1510   
    4.802       0.1226E-2    -.7806       0.8126E-3    -.1507   
    4.812       0.1234E-2    -.7801       0.8150E-3    -.1503   
    4.822       0.1243E-2    -.7796       0.8173E-3    -.1500   
    4.832       0.1251E-2    -.7791       0.8197E-3    -.1497   
    4.842       0.1259E-2    -.7786       0.8221E-3    -.1494   
    4.852       0.1268E-2    -.7781       0.8244E-3    -.1490   
    4.862       0.1276E-2    -.7776       0.8268E-3    -.1487   
    4.872       0.1285E-2    -.7771       0.8292E-3    -.1484   
    4.882       0.1293E-2    -.7766       0.8316E-3    -.1480   
    4.892       0.1302E-2    -.7761       0.8340E-3    -.1477   
    4.902       0.1311E-2    -.7756       0.8364E-3    -.1474   
    4.912       0.1320E-2    -.7750       0.8388E-3    -.1470   
    4.922       0.1328E-2    -.7745       0.8412E-3    -.1467   
    4.932       0.1338E-2    -.7740       0.8436E-3    -.1463   
    4.942       0.1347E-2    -.7734       0.8460E-3    -.1460   
    4.952       0.1356E-2    -.7729       0.8485E-3    -.1457   
    4.962       0.1365E-2    -.7723       0.8509E-3    -.1453   
    4.972       0.1374E-2    -.7718       0.8533E-3    -.1450   
    4.982       0.1384E-2    -.7712       0.8558E-3    -.1446   
    4.992       0.1393E-2    -.7707       0.8582E-3    -.1443   
    5.003       0.1403E-2    -.7701       0.8607E-3    -.1440   
    5.013       0.1413E-2    -.7696       0.8631E-3    -.1436   
    5.023       0.1423E-2    -.7690       0.8656E-3    -.1433   
    5.033       0.1433E-2    -.7684       0.8681E-3    -.1429   
    5.043       0.1443E-2    -.7678       0.8706E-3    -.1426   
    5.053       0.1453E-2    -.7673       0.8730E-3    -.1422   
    5.063       0.1463E-2    -.7667       0.8755E-3    -.1419   
    5.073       0.1473E-2    -.7661       0.8780E-3    -.1415   
    5.083       0.1484E-2    -.7655       0.8805E-3    -.1412   
    5.093       0.1494E-2    -.7649       0.8830E-3    -.1408   
    5.103       0.1505E-2    -.7643       0.8856E-3    -.1405   
    5.113       0.1515E-2    -.7637       0.8881E-3    -.1401   
    5.123       0.1526E-2    -.7631       0.8906E-3    -.1397   
    5.133       0.1537E-2    -.7625       0.8931E-3    -.1394   
    5.143       0.1548E-2    -.7618       0.8957E-3    -.1390   
    5.153       0.1559E-2    -.7612       0.8982E-3    -.1387   
    5.163       0.1571E-2    -.7606       0.9008E-3    -.1383   
    5.173       0.1582E-2    -.7600       0.9033E-3    -.1379   
    5.183       0.1593E-2    -.7593       0.9059E-3    -.1376   
    5.193       0.1605E-2    -.7587       0.9084E-3    -.1372   
    5.203       0.1617E-2    -.7580       0.9110E-3    -.1369   
    5.213       0.1629E-2    -.7574       0.9136E-3    -.1365   
    5.223       0.1641E-2    -.7567       0.9162E-3    -.1361   
    5.233       0.1653E-2    -.7561       0.9188E-3    -.1358   
    5.243       0.1665E-2    -.7554       0.9214E-3    -.1354   
    5.253       0.1677E-2    -.7547       0.9240E-3    -.1350   
    5.263       0.1690E-2    -.7541       0.9266E-3    -.1346   
    5.273       0.1702E-2    -.7534       0.9292E-3    -.1343   
    5.283       0.1715E-2    -.7527       0.9318E-3    -.1339   
    5.293       0.1728E-2    -.7520       0.9344E-3    -.1335   
    5.303       0.1741E-2    -.7513       0.9371E-3    -.1331   
    5.313       0.1754E-2    -.7506       0.9397E-3    -.1328   
    5.323       0.1767E-2    -.7499       0.9424E-3    -.1324   
    5.333       0.1781E-2    -.7492       0.9450E-3    -.1320   
    5.343       0.1794E-2    -.7485       0.9477E-3    -.1316   
    5.353       0.1808E-2    -.7478       0.9504E-3    -.1313   
    5.363       0.1822E-2    -.7470       0.9530E-3    -.1309   
    5.373       0.1836E-2    -.7463       0.9557E-3    -.1305   
    5.383       0.1850E-2    -.7456       0.9584E-3    -.1301   
    5.393       0.1864E-2    -.7448       0.9611E-3    -.1297   
    5.404       0.1879E-2    -.7441       0.9638E-3    -.1293   
    5.414       0.1893E-2    -.7433       0.9665E-3    -.1289   
    5.424       0.1908E-2    -.7425       0.9692E-3    -.1286   
    5.434       0.1923E-2    -.7418       0.9720E-3    -.1282   
    5.444       0.1938E-2    -.7410       0.9747E-3    -.1278   
    5.454       0.1953E-2    -.7402       0.9774E-3    -.1274   
    5.464       0.1969E-2    -.7394       0.9802E-3    -.1270   
    5.474       0.1984E-2    -.7386       0.9829E-3    -.1266   
    5.484       0.2000E-2    -.7378       0.9857E-3    -.1262   
    5.494       0.2016E-2    -.7370       0.9885E-3    -.1258   
    5.504       0.2032E-2    -.7362       0.9912E-3    -.1254   
    5.514       0.2049E-2    -.7354       0.9940E-3    -.1250   
    5.524       0.2065E-2    -.7346       0.9968E-3    -.1246   
    5.534       0.2082E-2    -.7337       0.9996E-3    -.1242   
    5.544       0.2099E-2    -.7329       0.1002E-2    -.1238   
    5.554       0.2116E-2    -.7321       0.1005E-2    -.1234   
    5.564       0.2133E-2    -.7312       0.1008E-2    -.1230   
    5.574       0.2151E-2    -.7304       0.1011E-2    -.1226   
    5.584       0.2169E-2    -.7295       0.1014E-2    -.1222   
    5.594       0.2187E-2    -.7286       0.1017E-2    -.1218   
    5.604       0.2205E-2    -.7277       0.1019E-2    -.1214   
    5.614       0.2223E-2    -.7268       0.1022E-2    -.1210   
    5.624       0.2242E-2    -.7260       0.1025E-2    -.1206   
    5.634       0.2261E-2    -.7251       0.1028E-2    -.1202   
    5.644       0.2280E-2    -.7241       0.1031E-2    -.1197   
    5.654       0.2299E-2    -.7232       0.1034E-2    -.1193   
    5.664       0.2318E-2    -.7223       0.1037E-2    -.1189   
    5.674       0.2338E-2    -.7214       0.1040E-2    -.1185   
    5.684       0.2358E-2    -.7204       0.1042E-2    -.1181   
    5.694       0.2378E-2    -.7195       0.1045E-2    -.1177   
    5.704       0.2399E-2    -.7185       0.1048E-2    -.1172   
    5.714       0.2420E-2    -.7175       0.1051E-2    -.1168   
    5.724       0.2441E-2    -.7166       0.1054E-2    -.1164   
    5.734       0.2462E-2    -.7156       0.1057E-2    -.1160   
    5.744       0.2483E-2    -.7146       0.1060E-2    -.1155   
    5.754       0.2505E-2    -.7136       0.1063E-2    -.1151   
    5.764       0.2527E-2    -.7126       0.1066E-2    -.1147   
    5.774       0.2550E-2    -.7116       0.1069E-2    -.1143   
    5.784       0.2572E-2    -.7105       0.1072E-2    -.1138   
    5.794       0.2595E-2    -.7095       0.1075E-2    -.1134   
    5.805       0.2618E-2    -.7085       0.1078E-2    -.1130   
    5.815       0.2642E-2    -.7074       0.1081E-2    -.1125   
    5.825       0.2666E-2    -.7063       0.1084E-2    -.1121   
    5.835       0.2690E-2    -.7053       0.1087E-2    -.1117   
    5.845       0.2714E-2    -.7042       0.1090E-2    -.1112   
    5.855       0.2739E-2    -.7031       0.1093E-2    -.1108   
    5.865       0.2764E-2    -.7020       0.1096E-2    -.1104   
    5.875       0.2790E-2    -.7009       0.1099E-2    -.1099   
    5.885       0.2816E-2    -.6998       0.1103E-2    -.1095   
    5.895       0.2842E-2    -.6986       0.1106E-2    -.1090   
    5.905       0.2868E-2    -.6975       0.1109E-2    -.1086   
    5.915       0.2895E-2    -.6963       0.1112E-2    -.1081   
    5.925       0.2922E-2    -.6952       0.1115E-2    -.1077   
    5.935       0.2950E-2    -.6940       0.1118E-2    -.1073   
    5.945       0.2978E-2    -.6928       0.1121E-2    -.1068   
    5.955       0.3006E-2    -.6916       0.1124E-2    -.1064   
    5.965       0.3035E-2    -.6904       0.1128E-2    -.1059   
    5.975       0.3064E-2    -.6892       0.1131E-2    -.1054   
    5.985       0.3094E-2    -.6879       0.1134E-2    -.1050   
    5.995       0.3124E-2    -.6867       0.1137E-2    -.1045   
    6.005       0.3154E-2    -.6854       0.1140E-2    -.1041   
    6.015       0.3185E-2    -.6842       0.1144E-2    -.1036   
    6.025       0.3216E-2    -.6829       0.1147E-2    -.1032   
    6.035       0.3248E-2    -.6816       0.1150E-2    -.1027   
    6.045       0.3280E-2    -.6803       0.1153E-2    -.1022   
    6.055       0.3313E-2    -.6789       0.1157E-2    -.1018   
    6.065       0.3346E-2    -.6776       0.1160E-2    -.1013   
    6.075       0.3380E-2    -.6763       0.1163E-2    -.1008   
    6.085       0.3414E-2    -.6749       0.1166E-2    -.1004   
    6.095       0.3448E-2    -.6735       0.1170E-2    -.9991E-1
    6.105       0.3483E-2    -.6721       0.1173E-2    -.9944E-1
    6.115       0.3519E-2    -.6707       0.1176E-2    -.9897E-1
    6.125       0.3555E-2    -.6693       0.1180E-2    -.9850E-1
    6.135       0.3592E-2    -.6679       0.1183E-2    -.9803E-1
    6.145       0.3629E-2    -.6664       0.1186E-2    -.9755E-1
    6.155       0.3667E-2    -.6650       0.1190E-2    -.9708E-1
    6.165       0.3706E-2    -.6635       0.1193E-2    -.9660E-1
    6.175       0.3745E-2    -.6620       0.1197E-2    -.9612E-1
    6.185       0.3784E-2    -.6605       0.1200E-2    -.9564E-1
    6.195       0.3825E-2    -.6590       0.1203E-2    -.9516E-1
    6.206       0.3866E-2    -.6574       0.1207E-2    -.9467E-1
    6.216       0.3907E-2    -.6559       0.1210E-2    -.9419E-1
    6.226       0.3949E-2    -.6543       0.1214E-2    -.9370E-1
    6.236       0.3992E-2    -.6527       0.1217E-2    -.9321E-1
    6.246       0.4036E-2    -.6511       0.1221E-2    -.9273E-1
    6.256       0.4080E-2    -.6495       0.1224E-2    -.9224E-1
    6.266       0.4125E-2    -.6478       0.1228E-2    -.9174E-1
    6.276       0.4171E-2    -.6462       0.1231E-2    -.9125E-1
    6.286       0.4217E-2    -.6445       0.1235E-2    -.9076E-1
    6.296       0.4264E-2    -.6428       0.1238E-2    -.9026E-1
    6.306       0.4312E-2    -.6411       0.1242E-2    -.8976E-1
    6.316       0.4361E-2    -.6393       0.1246E-2    -.8926E-1
    6.326       0.4411E-2    -.6376       0.1249E-2    -.8876E-1
    6.336       0.4461E-2    -.6358       0.1253E-2    -.8826E-1
    6.346       0.4513E-2    -.6340       0.1256E-2    -.8776E-1
    6.356       0.4565E-2    -.6322       0.1260E-2    -.8726E-1
    6.366       0.4618E-2    -.6303       0.1264E-2    -.8675E-1
    6.376       0.4672E-2    -.6285       0.1267E-2    -.8624E-1
    6.386       0.4727E-2    -.6266       0.1271E-2    -.8573E-1
    6.396       0.4783E-2    -.6247       0.1275E-2    -.8522E-1
    6.406       0.4839E-2    -.6227       0.1278E-2    -.8471E-1
    6.416       0.4897E-2    -.6208       0.1282E-2    -.8420E-1
    6.426       0.4956E-2    -.6188       0.1286E-2    -.8368E-1
    6.436       0.5016E-2    -.6168       0.1290E-2    -.8317E-1
    6.446       0.5077E-2    -.6148       0.1293E-2    -.8265E-1
    6.456       0.5139E-2    -.6127       0.1297E-2    -.8213E-1
    6.466       0.5202E-2    -.6107       0.1301E-2    -.8161E-1
    6.476       0.5267E-2    -.6086       0.1305E-2    -.8109E-1
    6.486       0.5332E-2    -.6065       0.1309E-2    -.8056E-1
    6.496       0.5399E-2    -.6043       0.1313E-2    -.8004E-1
    6.506       0.5467E-2    -.6021       0.1317E-2    -.7951E-1
    6.516       0.5537E-2    -.5999       0.1320E-2    -.7898E-1
    6.526       0.5607E-2    -.5977       0.1324E-2    -.7845E-1
    6.536       0.5679E-2    -.5954       0.1328E-2    -.7792E-1
    6.546       0.5752E-2    -.5931       0.1332E-2    -.7738E-1
    6.556       0.5827E-2    -.5908       0.1336E-2    -.7685E-1
    6.566       0.5903E-2    -.5885       0.1340E-2    -.7631E-1
    6.576       0.5981E-2    -.5861       0.1344E-2    -.7577E-1
    6.586       0.6060E-2    -.5837       0.1348E-2    -.7523E-1
    6.596       0.6141E-2    -.5812       0.1352E-2    -.7469E-1
    6.607       0.6223E-2    -.5787       0.1356E-2    -.7415E-1
    6.617       0.6307E-2    -.5762       0.1361E-2    -.7361E-1
    6.627       0.6393E-2    -.5737       0.1365E-2    -.7306E-1
    6.637       0.6480E-2    -.5711       0.1369E-2    -.7251E-1
    6.647       0.6570E-2    -.5685       0.1373E-2    -.7196E-1
    6.657       0.6661E-2    -.5658       0.1377E-2    -.7141E-1
    6.667       0.6754E-2    -.5632       0.1381E-2    -.7086E-1
    6.677       0.6848E-2    -.5604       0.1386E-2    -.7030E-1
    6.687       0.6945E-2    -.5577       0.1390E-2    -.6975E-1
    6.697       0.7044E-2    -.5549       0.1394E-2    -.6919E-1
    6.707       0.7145E-2    -.5520       0.1398E-2    -.6863E-1
    6.717       0.7248E-2    -.5491       0.1403E-2    -.6807E-1
    6.727       0.7354E-2    -.5462       0.1407E-2    -.6750E-1
    6.737       0.7461E-2    -.5432       0.1412E-2    -.6694E-1
