#                                                           
#   __   __     _        __  __       ____      U  ___  u   
#   \ \ / / U  /"\  U u |" \/ "| u U | __") u    \/"_ \/    
#    \ V /   \/ _ \/   \| |\/| |/   \|  _ \/     | | | |    
#   U_|"|_u  / ___ \    | |  | |     | |_) | .-,_| |_| |    
#     |_|   /_/   \_\   |_|  |_|     |____/   \_)-\___/     
# .-,//|(_   \\    >>  <<,-,,-.     _|| \\_        \\       
#  \_) (__) (__)  (__)  (./  \.)   (__) (__)      (__)      
#                                                           
#                                                           
#        Version 4.3.0 Revision 15168 Hash 7cbb356          
#                  MPI+SLK+OpenMP Build                     
#                http://www.yambo-code.org                  
#
# Joint density of states @ Q(1) [q->0 direction] :0.5774E-5 0.5774E-5 0.5774E-5
#
# - Energies      are  Analyt. E
# - The Green`s function is Retarded -
#
#   BSK|Identifier              :3539
#      |Dimension               :32
#      |Bands                   :7 - 10
#      |Exchange           [res]: yes
#      |Correlation        [res]: yes
#      |Kernel`s coupling       : no
#      |Exchange           [cpl]: no
#      |Correlation        [cpl]: no
#      |W interaction is bare   : yes
#      |ALDA kernel in R-space  : no
#      |RL vectors    [exchange]:51
#      |RL vectors [correlation]:51
#      |E/h energy range    [ev]:-1.000000 - -1.000000
#      |Coupling range     [o/o]: 100.0000 -  100.0000
#    W |Interaction is diagonal : yes
#      |Matrix size             :0
#   RIM|RL components      [col]:0
#      |Random points      [col]:0
#
#    E/ev[1]      jdos-Im[2]   jdos-Re[3]   jdoso-Im[4]  jdoso-Re[5]  jdos`-Im[6]  jdos`-Re[7]
#
    0.000000     0.000000     4.854975     0.000000     1.855033
   0.1001E-1    0.6047E-3     4.855       0.6143E-5     1.855   
   0.2003E-1    0.1210E-2     4.855       0.1229E-4     1.855   
   0.3004E-1    0.1816E-2     4.856       0.1843E-4     1.855   
   0.4005E-1    0.2422E-2     4.857       0.2457E-4     1.855   
   0.5006E-1    0.3031E-2     4.858       0.3072E-4     1.855   
   0.6008E-1    0.3641E-2     4.859       0.3686E-4     1.855   
   0.7009E-1    0.4253E-2     4.861       0.4301E-4     1.855   
   0.8010E-1    0.4868E-2     4.863       0.4915E-4     1.855   
   0.9011E-1    0.5485E-2     4.865       0.5530E-4     1.855   
   0.1001       0.6106E-2     4.867       0.6144E-4     1.855   
   0.1101       0.6731E-2     4.870       0.6759E-4     1.855   
   0.1202       0.7359E-2     4.873       0.7373E-4     1.855   
   0.1302       0.7992E-2     4.876       0.7988E-4     1.855   
   0.1402       0.8630E-2     4.879       0.8603E-4     1.855   
   0.1502       0.9273E-2     4.882       0.9218E-4     1.855   
   0.1602       0.9922E-2     4.886       0.9833E-4     1.855   
   0.1702       0.1058E-1     4.890       0.1045E-3     1.855   
   0.1802       0.1124E-1     4.895       0.1106E-3     1.855   
   0.1902       0.1191E-1     4.899       0.1168E-3     1.855   
   0.2003       0.1258E-1     4.904       0.1229E-3     1.856   
   0.2103       0.1327E-1     4.909       0.1291E-3     1.856   
   0.2203       0.1396E-1     4.915       0.1352E-3     1.856   
   0.2303       0.1466E-1     4.921       0.1414E-3     1.856   
   0.2403       0.1537E-1     4.927       0.1476E-3     1.856   
   0.2503       0.1609E-1     4.933       0.1537E-3     1.856   
   0.2603       0.1682E-1     4.940       0.1599E-3     1.856   
   0.2703       0.1756E-1     4.946       0.1660E-3     1.856   
   0.2804       0.1831E-1     4.954       0.1722E-3     1.856   
   0.2904       0.1908E-1     4.961       0.1784E-3     1.856   
   0.3004       0.1986E-1     4.969       0.1845E-3     1.856   
   0.3104       0.2065E-1     4.977       0.1907E-3     1.856   
   0.3204       0.2146E-1     4.985       0.1969E-3     1.856   
   0.3304       0.2228E-1     4.994       0.2030E-3     1.856   
   0.3404       0.2312E-1     5.003       0.2092E-3     1.856   
   0.3504       0.2397E-1     5.013       0.2154E-3     1.857   
   0.3605       0.2484E-1     5.022       0.2216E-3     1.857   
   0.3705       0.2573E-1     5.032       0.2277E-3     1.857   
   0.3805       0.2664E-1     5.043       0.2339E-3     1.857   
   0.3905       0.2757E-1     5.054       0.2401E-3     1.857   
   0.4005       0.2852E-1     5.065       0.2463E-3     1.857   
   0.4105       0.2949E-1     5.077       0.2525E-3     1.857   
   0.4205       0.3048E-1     5.089       0.2586E-3     1.857   
   0.4305       0.3150E-1     5.101       0.2648E-3     1.857   
   0.4406       0.3254E-1     5.114       0.2710E-3     1.857   
   0.4506       0.3362E-1     5.127       0.2772E-3     1.858   
   0.4606       0.3471E-1     5.141       0.2834E-3     1.858   
   0.4706       0.3584E-1     5.155       0.2896E-3     1.858   
   0.4806       0.3700E-1     5.169       0.2958E-3     1.858   
   0.4906       0.3819E-1     5.184       0.3020E-3     1.858   
   0.5006       0.3942E-1     5.200       0.3082E-3     1.858   
   0.5106       0.4068E-1     5.216       0.3144E-3     1.858   
   0.5207       0.4198E-1     5.232       0.3207E-3     1.858   
   0.5307       0.4331E-1     5.249       0.3269E-3     1.858   
   0.5407       0.4469E-1     5.267       0.3331E-3     1.859   
   0.5507       0.4611E-1     5.285       0.3393E-3     1.859   
   0.5607       0.4758E-1     5.304       0.3455E-3     1.859   
   0.5707       0.4910E-1     5.323       0.3517E-3     1.859   
   0.5807       0.5067E-1     5.343       0.3580E-3     1.859   
   0.5907       0.5229E-1     5.364       0.3642E-3     1.859   
   0.6008       0.5397E-1     5.385       0.3704E-3     1.859   
   0.6108       0.5571E-1     5.407       0.3767E-3     1.860   
   0.6208       0.5751E-1     5.429       0.3829E-3     1.860   
   0.6308       0.5938E-1     5.453       0.3892E-3     1.860   
   0.6408       0.6132E-1     5.477       0.3954E-3     1.860   
   0.6508       0.6333E-1     5.502       0.4017E-3     1.860   
   0.6608       0.6542E-1     5.527       0.4079E-3     1.860   
   0.6708       0.6760E-1     5.554       0.4142E-3     1.861   
   0.6809       0.6987E-1     5.582       0.4204E-3     1.861   
   0.6909       0.7223E-1     5.610       0.4267E-3     1.861   
   0.7009       0.7469E-1     5.639       0.4330E-3     1.861   
   0.7109       0.7726E-1     5.670       0.4392E-3     1.861   
   0.7209       0.7994E-1     5.701       0.4455E-3     1.861   
   0.7309       0.8275E-1     5.733       0.4518E-3     1.862   
   0.7409       0.8568E-1     5.767       0.4581E-3     1.862   
   0.7509       0.8875E-1     5.802       0.4644E-3     1.862   
   0.7610       0.9197E-1     5.838       0.4707E-3     1.862   
   0.7710       0.9535E-1     5.875       0.4769E-3     1.862   
   0.7810       0.9890E-1     5.914       0.4832E-3     1.863   
   0.7910       0.1026        5.954       0.4895E-3     1.863   
   0.8010       0.1066        5.996       0.4959E-3     1.863   
   0.8110       0.1107        6.039       0.5022E-3     1.863   
   0.8210       0.1150        6.084       0.5085E-3     1.863   
   0.8310       0.1197        6.131       0.5148E-3     1.864   
   0.8411       0.1245        6.180       0.5211E-3     1.864   
   0.8511       0.1297        6.230       0.5275E-3     1.864   
   0.8611       0.1351        6.283       0.5338E-3     1.864   
   0.8711       0.1409        6.338       0.5401E-3     1.864   
   0.8811       0.1471        6.395       0.5465E-3     1.865   
   0.8911       0.1537        6.455       0.5528E-3     1.865   
   0.9011       0.1607        6.518       0.5592E-3     1.865   
   0.9111       0.1681        6.583       0.5655E-3     1.865   
   0.9212       0.1761        6.652       0.5719E-3     1.866   
   0.9312       0.1847        6.723       0.5782E-3     1.866   
   0.9412       0.1939        6.799       0.5846E-3     1.866   
   0.9512       0.2038        6.878       0.5910E-3     1.866   
   0.9612       0.2145        6.961       0.5974E-3     1.866   
   0.9712       0.2260        7.048       0.6038E-3     1.867   
   0.9812       0.2385        7.140       0.6101E-3     1.867   
   0.9912       0.2521        7.238       0.6165E-3     1.867   
    1.001       0.2669        7.340       0.6229E-3     1.867   
    1.011       0.2830        7.449       0.6293E-3     1.868   
    1.021       0.3007        7.565       0.6358E-3     1.868   
    1.031       0.3201        7.687       0.6422E-3     1.868   
    1.041       0.3416        7.818       0.6486E-3     1.868   
    1.051       0.3653        7.957       0.6550E-3     1.869   
    1.061       0.3916        8.107       0.6615E-3     1.869   
    1.071       0.4210        8.266       0.6679E-3     1.869   
    1.081       0.4539        8.438       0.6743E-3     1.869   
    1.091       0.4910        8.623       0.6808E-3     1.870   
    1.101       0.5330        8.824       0.6873E-3     1.870   
    1.111       0.5809        9.041       0.6937E-3     1.870   
    1.121       0.6359        9.278       0.7002E-3     1.871   
    1.131       0.6994        9.537       0.7067E-3     1.871   
    1.141       0.7735        9.822       0.7131E-3     1.871   
    1.151       0.8605        10.14       0.7196E-3     1.871   
    1.161       0.9639        10.48       0.7261E-3     1.872   
    1.171        1.088        10.87       0.7326E-3     1.872   
    1.181        1.239        11.31       0.7391E-3     1.872   
    1.191        1.426        11.81       0.7456E-3     1.873   
    1.202        1.660        12.38       0.7521E-3     1.873   
    1.212        1.959        13.03       0.7587E-3     1.873   
    1.222        2.351        13.79       0.7652E-3     1.874   
    1.232        2.877        14.68       0.7717E-3     1.874   
    1.242        3.604        15.73       0.7783E-3     1.874   
    1.252        4.645        16.98       0.7848E-3     1.874   
    1.262        6.193        18.43       0.7914E-3     1.875   
    1.272        8.587        20.02       0.7980E-3     1.875   
    1.282        12.39        21.42       0.8045E-3     1.875   
    1.292        18.27        21.48       0.8111E-3     1.876   
    1.302        25.69        17.50       0.8177E-3     1.876   
    1.312        29.76        7.645       0.8243E-3     1.876   
    1.322        25.78       -2.160       0.8309E-3     1.877   
    1.332        18.51       -6.031       0.8375E-3     1.877   
    1.342        12.79       -5.824       0.8441E-3     1.877   
    1.352        9.171       -4.231       0.8507E-3     1.878   
    1.362        6.981       -2.387       0.8574E-3     1.878   
    1.372        5.672       -.6126       0.8640E-3     1.878   
    1.382        4.923        1.042       0.8706E-3     1.879   
    1.392        4.565        2.607       0.8773E-3     1.879   
    1.402        4.524        4.136       0.8839E-3     1.879   
    1.412        4.791        5.687       0.8906E-3     1.880   
    1.422        5.422        7.312       0.8973E-3     1.880   
    1.432        6.554        9.054       0.9040E-3     1.881   
    1.442        8.460        10.89       0.9107E-3     1.881   
    1.452        11.62        12.62       0.9174E-3     1.881   
    1.462        16.72        13.40       0.9241E-3     1.882   
    1.472        23.82        10.99       0.9308E-3     1.882   
    1.482        29.43        2.618       0.9375E-3     1.882   
    1.492        27.46       -8.137       0.9442E-3     1.883   
    1.502        20.26       -13.77       0.9510E-3     1.883   
    1.512        13.78       -14.48       0.9577E-3     1.884   
    1.522        9.465       -13.27       0.9645E-3     1.884   
    1.532        6.753       -11.67       0.9712E-3     1.884   
    1.542        5.016       -10.17       0.9780E-3     1.885   
    1.552        3.861       -8.862       0.9848E-3     1.885   
    1.562        3.062       -7.757       0.9916E-3     1.885   
    1.572        2.490       -6.822       0.9984E-3     1.886   
    1.582        2.067       -6.025       0.1005E-2     1.886   
    1.592        1.746       -5.341       0.1012E-2     1.887   
    1.602        1.496       -4.747       0.1019E-2     1.887   
    1.612        1.299       -4.228       0.1026E-2     1.888   
    1.622        1.140       -3.769       0.1032E-2     1.888   
    1.632        1.009       -3.362       0.1039E-2     1.888   
    1.642       0.9015       -2.997       0.1046E-2     1.889   
    1.652       0.8110       -2.668       0.1053E-2     1.889   
    1.662       0.7344       -2.369       0.1060E-2     1.890   
    1.672       0.6689       -2.097       0.1067E-2     1.890   
    1.682       0.6125       -1.848       0.1074E-2     1.890   
    1.692       0.5635       -1.618       0.1081E-2     1.891   
    1.702       0.5208       -1.406       0.1088E-2     1.891   
    1.712       0.4832       -1.209       0.1094E-2     1.892   
    1.722       0.4500       -1.026       0.1101E-2     1.892   
    1.732       0.4205       -.8544       0.1108E-2     1.893   
    1.742       0.3942       -.6938       0.1115E-2     1.893   
    1.752       0.3707       -.5429       0.1122E-2     1.894   
    1.762       0.3496       -.4006       0.1129E-2     1.894   
    1.772       0.3305       -.2662       0.1136E-2     1.894   
    1.782       0.3133       -.1387       0.1143E-2     1.895   
    1.792       0.2977       -.1771E-1    0.1150E-2     1.895   
    1.802       0.2836       0.9751E-1    0.1157E-2     1.896   
    1.812       0.2707       0.2075       0.1164E-2     1.896   
    1.822       0.2590       0.3126       0.1171E-2     1.897   
    1.832       0.2482       0.4133       0.1178E-2     1.897   
    1.842       0.2384       0.5100       0.1185E-2     1.898   
    1.852       0.2295       0.6030       0.1193E-2     1.898   
    1.862       0.2213       0.6926       0.1200E-2     1.899   
    1.872       0.2138       0.7792       0.1207E-2     1.899   
    1.882       0.2069       0.8629       0.1214E-2     1.900   
    1.892       0.2007       0.9440       0.1221E-2     1.900   
    1.902       0.1949        1.023       0.1228E-2     1.901   
    1.912       0.1897        1.099       0.1235E-2     1.901   
    1.922       0.1849        1.174       0.1242E-2     1.902   
    1.932       0.1806        1.247       0.1249E-2     1.902   
    1.942       0.1767        1.318       0.1257E-2     1.903   
    1.952       0.1731        1.388       0.1264E-2     1.903   
    1.962       0.1700        1.456       0.1271E-2     1.904   
    1.972       0.1672        1.523       0.1278E-2     1.904   
    1.982       0.1647        1.590       0.1285E-2     1.905   
    1.992       0.1626        1.655       0.1293E-2     1.905   
    2.003       0.1607        1.719       0.1300E-2     1.906   
    2.013       0.1592        1.783       0.1307E-2     1.906   
    2.023       0.1580        1.846       0.1314E-2     1.907   
    2.033       0.1571        1.909       0.1322E-2     1.907   
    2.043       0.1566        1.972       0.1329E-2     1.908   
    2.053       0.1563        2.034       0.1336E-2     1.908   
    2.063       0.1563        2.096       0.1344E-2     1.909   
    2.073       0.1567        2.159       0.1351E-2     1.909   
    2.083       0.1573        2.221       0.1358E-2     1.910   
    2.093       0.1583        2.284       0.1366E-2     1.910   
    2.103       0.1597        2.348       0.1373E-2     1.911   
    2.113       0.1615        2.412       0.1380E-2     1.912   
    2.123       0.1636        2.476       0.1388E-2     1.912   
    2.133       0.1661        2.542       0.1395E-2     1.913   
    2.143       0.1691        2.609       0.1403E-2     1.913   
    2.153       0.1726        2.677       0.1410E-2     1.914   
    2.163       0.1767        2.746       0.1417E-2     1.914   
    2.173       0.1813        2.817       0.1425E-2     1.915   
    2.183       0.1865        2.890       0.1432E-2     1.915   
    2.193       0.1924        2.966       0.1440E-2     1.916   
    2.203       0.1992        3.043       0.1447E-2     1.917   
    2.213       0.2068        3.124       0.1455E-2     1.917   
    2.223       0.2155        3.207       0.1462E-2     1.918   
    2.233       0.2252        3.295       0.1470E-2     1.918   
    2.243       0.2363        3.386       0.1477E-2     1.919   
    2.253       0.2489        3.482       0.1485E-2     1.920   
    2.263       0.2633        3.582       0.1492E-2     1.920   
    2.273       0.2797        3.689       0.1500E-2     1.921   
    2.283       0.2986        3.803       0.1508E-2     1.921   
    2.293       0.3203        3.924       0.1515E-2     1.922   
    2.303       0.3456        4.054       0.1523E-2     1.923   
    2.313       0.3751        4.194       0.1531E-2     1.923   
    2.323       0.4098        4.346       0.1538E-2     1.924   
    2.333       0.4509        4.512       0.1546E-2     1.924   
    2.343       0.5002        4.694       0.1554E-2     1.925   
    2.353       0.5598        4.896       0.1561E-2     1.926   
    2.363       0.6330        5.121       0.1569E-2     1.926   
    2.373       0.7240        5.374       0.1577E-2     1.927   
    2.383       0.8390        5.661       0.1584E-2     1.928   
    2.393       0.9872        5.990       0.1592E-2     1.928   
    2.403        1.182        6.372       0.1600E-2     1.929   
    2.413        1.446        6.818       0.1608E-2     1.929   
    2.423        1.814        7.343       0.1616E-2     1.930   
    2.433        2.344        7.963       0.1623E-2     1.931   
    2.443        3.137        8.682       0.1631E-2     1.931   
    2.453        4.372        9.462       0.1639E-2     1.932   
    2.463        6.338        10.11       0.1647E-2     1.933   
    2.473        9.362        10.01       0.1655E-2     1.933   
    2.483        13.04        7.733       0.1663E-2     1.934   
    2.493        14.75        2.590       0.1671E-2     1.935   
    2.503        12.45       -2.155       0.1679E-2     1.935   
    2.513        8.789       -3.905       0.1686E-2     1.936   
    2.523        5.992       -3.769       0.1694E-2     1.937   
    2.533        4.211       -3.031       0.1702E-2     1.937   
    2.543        3.103       -2.210       0.1710E-2     1.938   
    2.553        2.400       -1.451       0.1718E-2     1.939   
    2.563        1.942       -.7789       0.1726E-2     1.939   
    2.573        1.638       -.1845       0.1734E-2     1.940   
    2.583        1.438       0.3499       0.1743E-2     1.941   
    2.593        1.311       0.8415       0.1751E-2     1.942   
    2.603        1.240        1.306       0.1759E-2     1.942   
    2.613        1.216        1.756       0.1767E-2     1.943   
    2.623        1.237        2.207       0.1775E-2     1.944   
    2.633        1.305        2.669       0.1783E-2     1.944   
    2.643        1.428        3.158       0.1791E-2     1.945   
    2.653        1.624        3.689       0.1799E-2     1.946   
    2.663        1.920        4.279       0.1808E-2     1.947   
    2.673        2.368        4.945       0.1816E-2     1.947   
    2.683        3.056        5.698       0.1824E-2     1.948   
    2.693        4.139        6.516       0.1832E-2     1.949   
    2.703        5.879        7.263       0.1841E-2     1.949   
    2.713        8.621        7.447       0.1849E-2     1.950   
    2.723        12.26        5.824       0.1857E-2     1.951   
    2.733        14.71        1.198       0.1866E-2     1.952   
    2.743        13.19       -4.034       0.1874E-2     1.952   
    2.753        9.524       -6.459       0.1882E-2     1.953   
    2.763        6.446       -6.634       0.1891E-2     1.954   
    2.773        4.435       -6.003       0.1899E-2     1.955   
    2.783        3.172       -5.228       0.1907E-2     1.956   
    2.793        2.361       -4.510       0.1916E-2     1.956   
