#                                                           
# :::   :::   :::     ::::    ::::  :::::::::   ::::::::    
# :+:   :+: :+: :+:   +:+:+: :+:+:+ :+:    :+: :+:    :+:   
#  +:+ +:+ +:+   +:+  +:+ +:+:+ +:+ +:+    +:+ +:+    +:+   
#   +#++: +#++:++#++: +#+  +:+  +#+ +#++:++#+  +#+    +:+   
#    +#+  +#+     +#+ +#+       +#+ +#+    +#+ +#+    +#+   
#    #+#  #+#     #+# #+#       #+# #+#    #+# #+#    #+#   
#    ###  ###     ### ###       ### #########   ########    
#                                                           
#                                                           
#        Version 4.3.0 Revision 15341 Hash c146fb2          
#                      MPI+SLK Build                        
#                http://www.yambo-code.org                  
#
# Absorption @ Q(4) [iku] : 0.500000  0.250000  0.500000
#
#
#
# - The Green`s function is Resonant -
#
#
#    E/ev[1]      EPS-Im[2]    EPS-Re[3]
#
   -10.00       0.6208E-3     1.108   
   -9.990       0.6215E-3     1.108   
   -9.980       0.6222E-3     1.108   
   -9.970       0.6230E-3     1.108   
   -9.960       0.6237E-3     1.108   
   -9.950       0.6244E-3     1.108   
   -9.940       0.6252E-3     1.108   
   -9.930       0.6259E-3     1.108   
   -9.920       0.6267E-3     1.108   
   -9.910       0.6274E-3     1.108   
   -9.900       0.6281E-3     1.108   
   -9.890       0.6289E-3     1.109   
   -9.880       0.6296E-3     1.109   
   -9.870       0.6304E-3     1.109   
   -9.860       0.6311E-3     1.109   
   -9.850       0.6319E-3     1.109   
   -9.840       0.6326E-3     1.109   
   -9.830       0.6334E-3     1.109   
   -9.820       0.6341E-3     1.109   
   -9.810       0.6349E-3     1.109   
   -9.800       0.6356E-3     1.109   
   -9.790       0.6364E-3     1.109   
   -9.780       0.6372E-3     1.109   
   -9.770       0.6379E-3     1.109   
   -9.760       0.6387E-3     1.109   
   -9.750       0.6395E-3     1.109   
   -9.740       0.6402E-3     1.109   
   -9.730       0.6410E-3     1.110   
   -9.720       0.6418E-3     1.110   
   -9.710       0.6425E-3     1.110   
   -9.700       0.6433E-3     1.110   
   -9.690       0.6441E-3     1.110   
   -9.680       0.6448E-3     1.110   
   -9.670       0.6456E-3     1.110   
   -9.660       0.6464E-3     1.110   
   -9.650       0.6472E-3     1.110   
   -9.640       0.6479E-3     1.110   
   -9.630       0.6487E-3     1.110   
   -9.620       0.6495E-3     1.110   
   -9.610       0.6503E-3     1.110   
   -9.600       0.6511E-3     1.110   
   -9.590       0.6519E-3     1.110   
   -9.580       0.6527E-3     1.111   
   -9.570       0.6534E-3     1.111   
   -9.560       0.6542E-3     1.111   
   -9.550       0.6550E-3     1.111   
   -9.540       0.6558E-3     1.111   
   -9.530       0.6566E-3     1.111   
   -9.520       0.6574E-3     1.111   
   -9.510       0.6582E-3     1.111   
   -9.500       0.6590E-3     1.111   
   -9.490       0.6598E-3     1.111   
   -9.480       0.6606E-3     1.111   
   -9.470       0.6614E-3     1.111   
   -9.460       0.6622E-3     1.111   
   -9.450       0.6630E-3     1.111   
   -9.440       0.6638E-3     1.111   
   -9.430       0.6647E-3     1.112   
   -9.420       0.6655E-3     1.112   
   -9.410       0.6663E-3     1.112   
   -9.400       0.6671E-3     1.112   
   -9.390       0.6679E-3     1.112   
   -9.380       0.6687E-3     1.112   
   -9.370       0.6695E-3     1.112   
   -9.360       0.6704E-3     1.112   
   -9.350       0.6712E-3     1.112   
   -9.340       0.6720E-3     1.112   
   -9.330       0.6728E-3     1.112   
   -9.320       0.6737E-3     1.112   
   -9.310       0.6745E-3     1.112   
   -9.300       0.6753E-3     1.112   
   -9.290       0.6762E-3     1.112   
   -9.280       0.6770E-3     1.113   
   -9.270       0.6778E-3     1.113   
   -9.260       0.6787E-3     1.113   
   -9.250       0.6795E-3     1.113   
   -9.240       0.6803E-3     1.113   
   -9.230       0.6812E-3     1.113   
   -9.220       0.6820E-3     1.113   
   -9.210       0.6829E-3     1.113   
   -9.200       0.6837E-3     1.113   
   -9.190       0.6846E-3     1.113   
   -9.180       0.6854E-3     1.113   
   -9.170       0.6863E-3     1.113   
   -9.160       0.6871E-3     1.113   
   -9.150       0.6880E-3     1.113   
   -9.140       0.6888E-3     1.113   
   -9.130       0.6897E-3     1.114   
   -9.120       0.6905E-3     1.114   
   -9.110       0.6914E-3     1.114   
   -9.100       0.6923E-3     1.114   
   -9.090       0.6931E-3     1.114   
   -9.080       0.6940E-3     1.114   
   -9.070       0.6949E-3     1.114   
   -9.060       0.6957E-3     1.114   
   -9.050       0.6966E-3     1.114   
   -9.040       0.6975E-3     1.114   
   -9.030       0.6984E-3     1.114   
   -9.020       0.6992E-3     1.114   
   -9.010       0.7001E-3     1.114   
   -9.000       0.7010E-3     1.114   
   -8.990       0.7019E-3     1.115   
   -8.980       0.7027E-3     1.115   
   -8.970       0.7036E-3     1.115   
   -8.960       0.7045E-3     1.115   
   -8.950       0.7054E-3     1.115   
   -8.940       0.7063E-3     1.115   
   -8.930       0.7072E-3     1.115   
   -8.920       0.7081E-3     1.115   
   -8.910       0.7090E-3     1.115   
   -8.900       0.7099E-3     1.115   
   -8.890       0.7108E-3     1.115   
   -8.880       0.7117E-3     1.115   
   -8.870       0.7126E-3     1.115   
   -8.860       0.7135E-3     1.115   
   -8.850       0.7144E-3     1.116   
   -8.840       0.7153E-3     1.116   
   -8.830       0.7162E-3     1.116   
   -8.820       0.7171E-3     1.116   
   -8.810       0.7180E-3     1.116   
   -8.800       0.7189E-3     1.116   
   -8.790       0.7198E-3     1.116   
   -8.780       0.7208E-3     1.116   
   -8.770       0.7217E-3     1.116   
   -8.760       0.7226E-3     1.116   
   -8.750       0.7235E-3     1.116   
   -8.740       0.7244E-3     1.116   
   -8.730       0.7254E-3     1.116   
   -8.720       0.7263E-3     1.116   
   -8.710       0.7272E-3     1.117   
   -8.700       0.7282E-3     1.117   
   -8.690       0.7291E-3     1.117   
   -8.680       0.7300E-3     1.117   
   -8.670       0.7310E-3     1.117   
   -8.660       0.7319E-3     1.117   
   -8.650       0.7328E-3     1.117   
   -8.640       0.7338E-3     1.117   
   -8.630       0.7347E-3     1.117   
   -8.620       0.7357E-3     1.117   
   -8.610       0.7366E-3     1.117   
   -8.600       0.7376E-3     1.117   
   -8.590       0.7385E-3     1.117   
   -8.580       0.7395E-3     1.117   
   -8.570       0.7404E-3     1.118   
   -8.560       0.7414E-3     1.118   
   -8.550       0.7424E-3     1.118   
   -8.540       0.7433E-3     1.118   
   -8.530       0.7443E-3     1.118   
   -8.520       0.7453E-3     1.118   
   -8.510       0.7462E-3     1.118   
   -8.500       0.7472E-3     1.118   
   -8.490       0.7482E-3     1.118   
   -8.480       0.7491E-3     1.118   
   -8.470       0.7501E-3     1.118   
   -8.460       0.7511E-3     1.118   
   -8.450       0.7521E-3     1.118   
   -8.440       0.7530E-3     1.119   
   -8.430       0.7540E-3     1.119   
   -8.420       0.7550E-3     1.119   
   -8.410       0.7560E-3     1.119   
   -8.400       0.7570E-3     1.119   
   -8.390       0.7580E-3     1.119   
   -8.380       0.7590E-3     1.119   
   -8.370       0.7600E-3     1.119   
   -8.360       0.7610E-3     1.119   
   -8.350       0.7620E-3     1.119   
   -8.340       0.7630E-3     1.119   
   -8.330       0.7640E-3     1.119   
   -8.320       0.7650E-3     1.119   
   -8.310       0.7660E-3     1.120   
   -8.300       0.7670E-3     1.120   
   -8.290       0.7680E-3     1.120   
   -8.280       0.7690E-3     1.120   
   -8.270       0.7700E-3     1.120   
   -8.260       0.7710E-3     1.120   
   -8.250       0.7721E-3     1.120   
   -8.240       0.7731E-3     1.120   
   -8.230       0.7741E-3     1.120   
   -8.220       0.7751E-3     1.120   
   -8.210       0.7762E-3     1.120   
   -8.200       0.7772E-3     1.120   
   -8.190       0.7782E-3     1.120   
   -8.180       0.7793E-3     1.121   
   -8.170       0.7803E-3     1.121   
   -8.160       0.7813E-3     1.121   
   -8.150       0.7824E-3     1.121   
   -8.140       0.7834E-3     1.121   
   -8.130       0.7845E-3     1.121   
   -8.120       0.7855E-3     1.121   
   -8.110       0.7865E-3     1.121   
   -8.100       0.7876E-3     1.121   
   -8.090       0.7887E-3     1.121   
   -8.080       0.7897E-3     1.121   
   -8.070       0.7908E-3     1.121   
   -8.060       0.7918E-3     1.121   
   -8.050       0.7929E-3     1.122   
   -8.040       0.7939E-3     1.122   
   -8.030       0.7950E-3     1.122   
   -8.020       0.7961E-3     1.122   
   -8.010       0.7972E-3     1.122   
   -8.000       0.7982E-3     1.122   
   -7.990       0.7993E-3     1.122   
   -7.980       0.8004E-3     1.122   
   -7.970       0.8015E-3     1.122   
   -7.960       0.8025E-3     1.122   
   -7.950       0.8036E-3     1.122   
   -7.940       0.8047E-3     1.122   
   -7.930       0.8058E-3     1.122   
   -7.920       0.8069E-3     1.123   
   -7.910       0.8080E-3     1.123   
   -7.900       0.8091E-3     1.123   
   -7.890       0.8102E-3     1.123   
   -7.880       0.8113E-3     1.123   
   -7.870       0.8124E-3     1.123   
   -7.860       0.8135E-3     1.123   
   -7.850       0.8146E-3     1.123   
   -7.840       0.8157E-3     1.123   
   -7.830       0.8168E-3     1.123   
   -7.820       0.8179E-3     1.123   
   -7.810       0.8190E-3     1.123   
   -7.800       0.8202E-3     1.124   
   -7.790       0.8213E-3     1.124   
   -7.780       0.8224E-3     1.124   
   -7.770       0.8235E-3     1.124   
   -7.760       0.8246E-3     1.124   
   -7.750       0.8258E-3     1.124   
   -7.740       0.8269E-3     1.124   
   -7.730       0.8280E-3     1.124   
   -7.720       0.8292E-3     1.124   
   -7.710       0.8303E-3     1.124   
   -7.700       0.8315E-3     1.124   
   -7.690       0.8326E-3     1.124   
   -7.680       0.8338E-3     1.125   
   -7.670       0.8349E-3     1.125   
   -7.660       0.8361E-3     1.125   
   -7.650       0.8372E-3     1.125   
   -7.640       0.8384E-3     1.125   
   -7.630       0.8395E-3     1.125   
   -7.620       0.8407E-3     1.125   
   -7.610       0.8418E-3     1.125   
   -7.600       0.8430E-3     1.125   
   -7.590       0.8442E-3     1.125   
   -7.580       0.8454E-3     1.125   
   -7.570       0.8465E-3     1.125   
   -7.560       0.8477E-3     1.126   
   -7.550       0.8489E-3     1.126   
   -7.540       0.8501E-3     1.126   
   -7.530       0.8512E-3     1.126   
   -7.520       0.8524E-3     1.126   
   -7.510       0.8536E-3     1.126   
   -7.500       0.8548E-3     1.126   
   -7.490       0.8560E-3     1.126   
   -7.480       0.8572E-3     1.126   
   -7.470       0.8584E-3     1.126   
   -7.460       0.8596E-3     1.126   
   -7.450       0.8608E-3     1.126   
   -7.440       0.8620E-3     1.127   
   -7.430       0.8632E-3     1.127   
   -7.420       0.8644E-3     1.127   
   -7.410       0.8657E-3     1.127   
   -7.400       0.8669E-3     1.127   
   -7.390       0.8681E-3     1.127   
   -7.380       0.8693E-3     1.127   
   -7.370       0.8705E-3     1.127   
   -7.360       0.8718E-3     1.127   
   -7.350       0.8730E-3     1.127   
   -7.340       0.8742E-3     1.127   
   -7.330       0.8755E-3     1.128   
   -7.320       0.8767E-3     1.128   
   -7.310       0.8779E-3     1.128   
   -7.300       0.8792E-3     1.128   
   -7.290       0.8804E-3     1.128   
   -7.280       0.8817E-3     1.128   
   -7.270       0.8829E-3     1.128   
   -7.260       0.8842E-3     1.128   
   -7.250       0.8854E-3     1.128   
   -7.240       0.8867E-3     1.128   
   -7.230       0.8880E-3     1.128   
   -7.220       0.8892E-3     1.129   
   -7.210       0.8905E-3     1.129   
   -7.200       0.8918E-3     1.129   
   -7.190       0.8930E-3     1.129   
   -7.180       0.8943E-3     1.129   
   -7.170       0.8956E-3     1.129   
   -7.160       0.8969E-3     1.129   
   -7.150       0.8982E-3     1.129   
   -7.140       0.8995E-3     1.129   
   -7.130       0.9008E-3     1.129   
   -7.120       0.9020E-3     1.129   
   -7.110       0.9033E-3     1.129   
   -7.100       0.9046E-3     1.130   
   -7.090       0.9059E-3     1.130   
   -7.080       0.9072E-3     1.130   
   -7.070       0.9086E-3     1.130   
   -7.060       0.9099E-3     1.130   
   -7.050       0.9112E-3     1.130   
   -7.040       0.9125E-3     1.130   
   -7.030       0.9138E-3     1.130   
   -7.020       0.9151E-3     1.130   
   -7.010       0.9165E-3     1.130   
   -7.000       0.9178E-3     1.130   
   -6.990       0.9191E-3     1.131   
   -6.980       0.9205E-3     1.131   
   -6.970       0.9218E-3     1.131   
   -6.960       0.9231E-3     1.131   
   -6.950       0.9245E-3     1.131   
   -6.940       0.9258E-3     1.131   
   -6.930       0.9272E-3     1.131   
   -6.920       0.9285E-3     1.131   
   -6.910       0.9299E-3     1.131   
   -6.900       0.9312E-3     1.131   
   -6.890       0.9326E-3     1.132   
   -6.880       0.9340E-3     1.132   
   -6.870       0.9353E-3     1.132   
   -6.860       0.9367E-3     1.132   
   -6.850       0.9381E-3     1.132   
   -6.840       0.9395E-3     1.132   
   -6.830       0.9408E-3     1.132   
   -6.820       0.9422E-3     1.132   
   -6.810       0.9436E-3     1.132   
   -6.800       0.9450E-3     1.132   
   -6.790       0.9464E-3     1.132   
   -6.780       0.9478E-3     1.133   
   -6.770       0.9492E-3     1.133   
   -6.760       0.9506E-3     1.133   
   -6.750       0.9520E-3     1.133   
   -6.740       0.9534E-3     1.133   
   -6.730       0.9548E-3     1.133   
   -6.720       0.9562E-3     1.133   
   -6.710       0.9577E-3     1.133   
   -6.700       0.9591E-3     1.133   
   -6.690       0.9605E-3     1.133   
   -6.680       0.9619E-3     1.133   
   -6.670       0.9634E-3     1.134   
   -6.660       0.9648E-3     1.134   
   -6.650       0.9662E-3     1.134   
   -6.640       0.9677E-3     1.134   
   -6.630       0.9691E-3     1.134   
   -6.620       0.9706E-3     1.134   
   -6.610       0.9720E-3     1.134   
   -6.600       0.9735E-3     1.134   
   -6.590       0.9749E-3     1.134   
   -6.580       0.9764E-3     1.134   
   -6.570       0.9779E-3     1.135   
   -6.560       0.9793E-3     1.135   
   -6.550       0.9808E-3     1.135   
   -6.540       0.9823E-3     1.135   
   -6.530       0.9838E-3     1.135   
   -6.520       0.9852E-3     1.135   
   -6.510       0.9867E-3     1.135   
   -6.500       0.9882E-3     1.135   
   -6.490       0.9897E-3     1.135   
   -6.480       0.9912E-3     1.135   
   -6.470       0.9927E-3     1.136   
   -6.460       0.9942E-3     1.136   
   -6.450       0.9957E-3     1.136   
   -6.440       0.9972E-3     1.136   
   -6.430       0.9987E-3     1.136   
   -6.420       0.1000E-2     1.136   
   -6.410       0.1002E-2     1.136   
   -6.400       0.1003E-2     1.136   
   -6.390       0.1005E-2     1.136   
   -6.380       0.1006E-2     1.136   
   -6.370       0.1008E-2     1.137   
   -6.360       0.1009E-2     1.137   
   -6.350       0.1011E-2     1.137   
   -6.340       0.1013E-2     1.137   
   -6.330       0.1014E-2     1.137   
   -6.320       0.1016E-2     1.137   
   -6.310       0.1017E-2     1.137   
   -6.300       0.1019E-2     1.137   
   -6.290       0.1020E-2     1.137   
   -6.280       0.1022E-2     1.137   
   -6.270       0.1023E-2     1.138   
   -6.260       0.1025E-2     1.138   
   -6.250       0.1027E-2     1.138   
   -6.240       0.1028E-2     1.138   
   -6.230       0.1030E-2     1.138   
   -6.220       0.1031E-2     1.138   
   -6.210       0.1033E-2     1.138   
   -6.200       0.1035E-2     1.138   
   -6.190       0.1036E-2     1.138   
   -6.180       0.1038E-2     1.138   
   -6.170       0.1039E-2     1.139   
   -6.160       0.1041E-2     1.139   
   -6.150       0.1043E-2     1.139   
   -6.140       0.1044E-2     1.139   
   -6.130       0.1046E-2     1.139   
   -6.120       0.1047E-2     1.139   
   -6.110       0.1049E-2     1.139   
   -6.100       0.1051E-2     1.139   
   -6.090       0.1052E-2     1.139   
   -6.080       0.1054E-2     1.140   
   -6.070       0.1056E-2     1.140   
   -6.060       0.1057E-2     1.140   
   -6.050       0.1059E-2     1.140   
   -6.040       0.1061E-2     1.140   
   -6.030       0.1062E-2     1.140   
   -6.020       0.1064E-2     1.140   
   -6.010       0.1066E-2     1.140   
   -6.000       0.1067E-2     1.140   
   -5.990       0.1069E-2     1.140   
   -5.980       0.1071E-2     1.141   
   -5.970       0.1072E-2     1.141   
   -5.960       0.1074E-2     1.141   
   -5.950       0.1076E-2     1.141   
   -5.940       0.1077E-2     1.141   
   -5.930       0.1079E-2     1.141   
   -5.920       0.1081E-2     1.141   
   -5.910       0.1083E-2     1.141   
   -5.900       0.1084E-2     1.141   
   -5.890       0.1086E-2     1.142   
   -5.880       0.1088E-2     1.142   
   -5.870       0.1089E-2     1.142   
   -5.860       0.1091E-2     1.142   
   -5.850       0.1093E-2     1.142   
   -5.840       0.1095E-2     1.142   
   -5.830       0.1096E-2     1.142   
   -5.820       0.1098E-2     1.142   
   -5.810       0.1100E-2     1.142   
   -5.800       0.1102E-2     1.143   
   -5.790       0.1103E-2     1.143   
   -5.780       0.1105E-2     1.143   
   -5.770       0.1107E-2     1.143   
   -5.760       0.1109E-2     1.143   
   -5.750       0.1111E-2     1.143   
   -5.740       0.1112E-2     1.143   
   -5.730       0.1114E-2     1.143   
   -5.720       0.1116E-2     1.143   
   -5.710       0.1118E-2     1.144   
   -5.700       0.1120E-2     1.144   
   -5.690       0.1121E-2     1.144   
   -5.680       0.1123E-2     1.144   
   -5.670       0.1125E-2     1.144   
   -5.660       0.1127E-2     1.144   
   -5.650       0.1129E-2     1.144   
   -5.640       0.1130E-2     1.144   
   -5.630       0.1132E-2     1.144   
   -5.620       0.1134E-2     1.145   
   -5.610       0.1136E-2     1.145   
   -5.600       0.1138E-2     1.145   
   -5.590       0.1140E-2     1.145   
   -5.580       0.1142E-2     1.145   
   -5.570       0.1143E-2     1.145   
   -5.560       0.1145E-2     1.145   
   -5.550       0.1147E-2     1.145   
   -5.540       0.1149E-2     1.145   
   -5.530       0.1151E-2     1.146   
   -5.520       0.1153E-2     1.146   
   -5.510       0.1155E-2     1.146   
   -5.500       0.1157E-2     1.146   
   -5.490       0.1158E-2     1.146   
   -5.480       0.1160E-2     1.146   
   -5.470       0.1162E-2     1.146   
   -5.460       0.1164E-2     1.146   
   -5.450       0.1166E-2     1.147   
   -5.440       0.1168E-2     1.147   
   -5.430       0.1170E-2     1.147   
   -5.420       0.1172E-2     1.147   
   -5.410       0.1174E-2     1.147   
   -5.400       0.1176E-2     1.147   
   -5.390       0.1178E-2     1.147   
   -5.380       0.1180E-2     1.147   
   -5.370       0.1182E-2     1.147   
   -5.360       0.1184E-2     1.148   
   -5.350       0.1186E-2     1.148   
   -5.340       0.1188E-2     1.148   
   -5.330       0.1190E-2     1.148   
   -5.320       0.1192E-2     1.148   
   -5.310       0.1194E-2     1.148   
   -5.300       0.1196E-2     1.148   
   -5.290       0.1198E-2     1.148   
   -5.280       0.1200E-2     1.149   
   -5.270       0.1202E-2     1.149   
   -5.260       0.1204E-2     1.149   
   -5.250       0.1206E-2     1.149   
   -5.240       0.1208E-2     1.149   
   -5.230       0.1210E-2     1.149   
   -5.220       0.1212E-2     1.149   
   -5.210       0.1214E-2     1.149   
   -5.200       0.1216E-2     1.149   
   -5.190       0.1218E-2     1.150   
   -5.180       0.1220E-2     1.150   
   -5.170       0.1222E-2     1.150   
   -5.160       0.1224E-2     1.150   
   -5.150       0.1226E-2     1.150   
   -5.140       0.1228E-2     1.150   
   -5.130       0.1230E-2     1.150   
