#                                                           
# :::   :::   :::     ::::    ::::  :::::::::   ::::::::    
# :+:   :+: :+: :+:   +:+:+: :+:+:+ :+:    :+: :+:    :+:   
#  +:+ +:+ +:+   +:+  +:+ +:+:+ +:+ +:+    +:+ +:+    +:+   
#   +#++: +#++:++#++: +#+  +:+  +#+ +#++:++#+  +#+    +:+   
#    +#+  +#+     +#+ +#+       +#+ +#+    +#+ +#+    +#+   
#    #+#  #+#     #+# #+#       #+# #+#    #+# #+#    #+#   
#    ###  ###     ### ###       ### #########   ########    
#                                                           
#                                                           
#        Version 4.3.0 Revision 15341 Hash c146fb2          
#                      MPI+SLK Build                        
#                http://www.yambo-code.org                  
#
# Absorption @ Q(2) [iku] : 0.500000  0.250000  0.000000
#
#
#
# - The Green`s function is Resonant -
#
#
#    E/ev[1]      EPS-Im[2]    EPS-Re[3]
#
   -10.00       0.7527E-3     1.127   
   -9.990       0.7536E-3     1.127   
   -9.980       0.7545E-3     1.127   
   -9.970       0.7554E-3     1.127   
   -9.960       0.7563E-3     1.127   
   -9.950       0.7572E-3     1.128   
   -9.940       0.7581E-3     1.128   
   -9.930       0.7591E-3     1.128   
   -9.920       0.7600E-3     1.128   
   -9.910       0.7609E-3     1.128   
   -9.900       0.7618E-3     1.128   
   -9.890       0.7627E-3     1.128   
   -9.880       0.7637E-3     1.128   
   -9.870       0.7646E-3     1.128   
   -9.860       0.7655E-3     1.128   
   -9.850       0.7665E-3     1.128   
   -9.840       0.7674E-3     1.128   
   -9.830       0.7683E-3     1.128   
   -9.820       0.7693E-3     1.129   
   -9.810       0.7702E-3     1.129   
   -9.800       0.7711E-3     1.129   
   -9.790       0.7721E-3     1.129   
   -9.780       0.7730E-3     1.129   
   -9.770       0.7740E-3     1.129   
   -9.760       0.7749E-3     1.129   
   -9.750       0.7759E-3     1.129   
   -9.740       0.7768E-3     1.129   
   -9.730       0.7778E-3     1.129   
   -9.720       0.7787E-3     1.129   
   -9.710       0.7797E-3     1.129   
   -9.700       0.7806E-3     1.129   
   -9.690       0.7816E-3     1.130   
   -9.680       0.7825E-3     1.130   
   -9.670       0.7835E-3     1.130   
   -9.660       0.7845E-3     1.130   
   -9.650       0.7854E-3     1.130   
   -9.640       0.7864E-3     1.130   
   -9.630       0.7874E-3     1.130   
   -9.620       0.7883E-3     1.130   
   -9.610       0.7893E-3     1.130   
   -9.600       0.7903E-3     1.130   
   -9.590       0.7913E-3     1.130   
   -9.580       0.7922E-3     1.130   
   -9.570       0.7932E-3     1.131   
   -9.560       0.7942E-3     1.131   
   -9.550       0.7952E-3     1.131   
   -9.540       0.7962E-3     1.131   
   -9.530       0.7972E-3     1.131   
   -9.520       0.7982E-3     1.131   
   -9.510       0.7991E-3     1.131   
   -9.500       0.8001E-3     1.131   
   -9.490       0.8011E-3     1.131   
   -9.480       0.8021E-3     1.131   
   -9.470       0.8031E-3     1.131   
   -9.460       0.8041E-3     1.131   
   -9.450       0.8051E-3     1.131   
   -9.440       0.8061E-3     1.132   
   -9.430       0.8071E-3     1.132   
   -9.420       0.8082E-3     1.132   
   -9.410       0.8092E-3     1.132   
   -9.400       0.8102E-3     1.132   
   -9.390       0.8112E-3     1.132   
   -9.380       0.8122E-3     1.132   
   -9.370       0.8132E-3     1.132   
   -9.360       0.8142E-3     1.132   
   -9.350       0.8153E-3     1.132   
   -9.340       0.8163E-3     1.132   
   -9.330       0.8173E-3     1.132   
   -9.320       0.8183E-3     1.133   
   -9.310       0.8194E-3     1.133   
   -9.300       0.8204E-3     1.133   
   -9.290       0.8214E-3     1.133   
   -9.280       0.8225E-3     1.133   
   -9.270       0.8235E-3     1.133   
   -9.260       0.8246E-3     1.133   
   -9.250       0.8256E-3     1.133   
   -9.240       0.8266E-3     1.133   
   -9.230       0.8277E-3     1.133   
   -9.220       0.8287E-3     1.133   
   -9.210       0.8298E-3     1.133   
   -9.200       0.8308E-3     1.134   
   -9.190       0.8319E-3     1.134   
   -9.180       0.8329E-3     1.134   
   -9.170       0.8340E-3     1.134   
   -9.160       0.8351E-3     1.134   
   -9.150       0.8361E-3     1.134   
   -9.140       0.8372E-3     1.134   
   -9.130       0.8383E-3     1.134   
   -9.120       0.8393E-3     1.134   
   -9.110       0.8404E-3     1.134   
   -9.100       0.8415E-3     1.134   
   -9.090       0.8425E-3     1.134   
   -9.080       0.8436E-3     1.135   
   -9.070       0.8447E-3     1.135   
   -9.060       0.8458E-3     1.135   
   -9.050       0.8469E-3     1.135   
   -9.040       0.8479E-3     1.135   
   -9.030       0.8490E-3     1.135   
   -9.020       0.8501E-3     1.135   
   -9.010       0.8512E-3     1.135   
   -9.000       0.8523E-3     1.135   
   -8.990       0.8534E-3     1.135   
   -8.980       0.8545E-3     1.135   
   -8.970       0.8556E-3     1.135   
   -8.960       0.8567E-3     1.136   
   -8.950       0.8578E-3     1.136   
   -8.940       0.8589E-3     1.136   
   -8.930       0.8600E-3     1.136   
   -8.920       0.8611E-3     1.136   
   -8.910       0.8622E-3     1.136   
   -8.900       0.8634E-3     1.136   
   -8.890       0.8645E-3     1.136   
   -8.880       0.8656E-3     1.136   
   -8.870       0.8667E-3     1.136   
   -8.860       0.8678E-3     1.136   
   -8.850       0.8690E-3     1.136   
   -8.840       0.8701E-3     1.137   
   -8.830       0.8712E-3     1.137   
   -8.820       0.8724E-3     1.137   
   -8.810       0.8735E-3     1.137   
   -8.800       0.8746E-3     1.137   
   -8.790       0.8758E-3     1.137   
   -8.780       0.8769E-3     1.137   
   -8.770       0.8781E-3     1.137   
   -8.760       0.8792E-3     1.137   
   -8.750       0.8804E-3     1.137   
   -8.740       0.8815E-3     1.137   
   -8.730       0.8827E-3     1.138   
   -8.720       0.8838E-3     1.138   
   -8.710       0.8850E-3     1.138   
   -8.700       0.8861E-3     1.138   
   -8.690       0.8873E-3     1.138   
   -8.680       0.8885E-3     1.138   
   -8.670       0.8896E-3     1.138   
   -8.660       0.8908E-3     1.138   
   -8.650       0.8920E-3     1.138   
   -8.640       0.8932E-3     1.138   
   -8.630       0.8943E-3     1.138   
   -8.620       0.8955E-3     1.139   
   -8.610       0.8967E-3     1.139   
   -8.600       0.8979E-3     1.139   
   -8.590       0.8991E-3     1.139   
   -8.580       0.9002E-3     1.139   
   -8.570       0.9014E-3     1.139   
   -8.560       0.9026E-3     1.139   
   -8.550       0.9038E-3     1.139   
   -8.540       0.9050E-3     1.139   
   -8.530       0.9062E-3     1.139   
   -8.520       0.9074E-3     1.139   
   -8.510       0.9086E-3     1.140   
   -8.500       0.9098E-3     1.140   
   -8.490       0.9111E-3     1.140   
   -8.480       0.9123E-3     1.140   
   -8.470       0.9135E-3     1.140   
   -8.460       0.9147E-3     1.140   
   -8.450       0.9159E-3     1.140   
   -8.440       0.9171E-3     1.140   
   -8.430       0.9184E-3     1.140   
   -8.420       0.9196E-3     1.140   
   -8.410       0.9208E-3     1.140   
   -8.400       0.9221E-3     1.141   
   -8.390       0.9233E-3     1.141   
   -8.380       0.9245E-3     1.141   
   -8.370       0.9258E-3     1.141   
   -8.360       0.9270E-3     1.141   
   -8.350       0.9283E-3     1.141   
   -8.340       0.9295E-3     1.141   
   -8.330       0.9308E-3     1.141   
   -8.320       0.9320E-3     1.141   
   -8.310       0.9333E-3     1.141   
   -8.300       0.9345E-3     1.141   
   -8.290       0.9358E-3     1.142   
   -8.280       0.9371E-3     1.142   
   -8.270       0.9383E-3     1.142   
   -8.260       0.9396E-3     1.142   
   -8.250       0.9409E-3     1.142   
   -8.240       0.9421E-3     1.142   
   -8.230       0.9434E-3     1.142   
   -8.220       0.9447E-3     1.142   
   -8.210       0.9460E-3     1.142   
   -8.200       0.9473E-3     1.142   
   -8.190       0.9485E-3     1.142   
   -8.180       0.9498E-3     1.143   
   -8.170       0.9511E-3     1.143   
   -8.160       0.9524E-3     1.143   
   -8.150       0.9537E-3     1.143   
   -8.140       0.9550E-3     1.143   
   -8.130       0.9563E-3     1.143   
   -8.120       0.9576E-3     1.143   
   -8.110       0.9589E-3     1.143   
   -8.100       0.9603E-3     1.143   
   -8.090       0.9616E-3     1.143   
   -8.080       0.9629E-3     1.144   
   -8.070       0.9642E-3     1.144   
   -8.060       0.9655E-3     1.144   
   -8.050       0.9669E-3     1.144   
   -8.040       0.9682E-3     1.144   
   -8.030       0.9695E-3     1.144   
   -8.020       0.9708E-3     1.144   
   -8.010       0.9722E-3     1.144   
   -8.000       0.9735E-3     1.144   
   -7.990       0.9749E-3     1.144   
   -7.980       0.9762E-3     1.144   
   -7.970       0.9776E-3     1.145   
   -7.960       0.9789E-3     1.145   
   -7.950       0.9803E-3     1.145   
   -7.940       0.9816E-3     1.145   
   -7.930       0.9830E-3     1.145   
   -7.920       0.9843E-3     1.145   
   -7.910       0.9857E-3     1.145   
   -7.900       0.9871E-3     1.145   
   -7.890       0.9884E-3     1.145   
   -7.880       0.9898E-3     1.145   
   -7.870       0.9912E-3     1.146   
   -7.860       0.9926E-3     1.146   
   -7.850       0.9940E-3     1.146   
   -7.840       0.9953E-3     1.146   
   -7.830       0.9967E-3     1.146   
   -7.820       0.9981E-3     1.146   
   -7.810       0.9995E-3     1.146   
   -7.800       0.1001E-2     1.146   
   -7.790       0.1002E-2     1.146   
   -7.780       0.1004E-2     1.146   
   -7.770       0.1005E-2     1.147   
   -7.760       0.1007E-2     1.147   
   -7.750       0.1008E-2     1.147   
   -7.740       0.1009E-2     1.147   
   -7.730       0.1011E-2     1.147   
   -7.720       0.1012E-2     1.147   
   -7.710       0.1014E-2     1.147   
   -7.700       0.1015E-2     1.147   
   -7.690       0.1016E-2     1.147   
   -7.680       0.1018E-2     1.147   
   -7.670       0.1019E-2     1.148   
   -7.660       0.1021E-2     1.148   
   -7.650       0.1022E-2     1.148   
   -7.640       0.1024E-2     1.148   
   -7.630       0.1025E-2     1.148   
   -7.620       0.1027E-2     1.148   
   -7.610       0.1028E-2     1.148   
   -7.600       0.1030E-2     1.148   
   -7.590       0.1031E-2     1.148   
   -7.580       0.1032E-2     1.149   
   -7.570       0.1034E-2     1.149   
   -7.560       0.1035E-2     1.149   
   -7.550       0.1037E-2     1.149   
   -7.540       0.1038E-2     1.149   
   -7.530       0.1040E-2     1.149   
   -7.520       0.1041E-2     1.149   
   -7.510       0.1043E-2     1.149   
   -7.500       0.1044E-2     1.149   
   -7.490       0.1046E-2     1.149   
   -7.480       0.1047E-2     1.150   
   -7.470       0.1049E-2     1.150   
   -7.460       0.1050E-2     1.150   
   -7.450       0.1052E-2     1.150   
   -7.440       0.1053E-2     1.150   
   -7.430       0.1055E-2     1.150   
   -7.420       0.1056E-2     1.150   
   -7.410       0.1058E-2     1.150   
   -7.400       0.1059E-2     1.150   
   -7.390       0.1061E-2     1.150   
   -7.380       0.1062E-2     1.151   
   -7.370       0.1064E-2     1.151   
   -7.360       0.1065E-2     1.151   
   -7.350       0.1067E-2     1.151   
   -7.340       0.1069E-2     1.151   
   -7.330       0.1070E-2     1.151   
   -7.320       0.1072E-2     1.151   
   -7.310       0.1073E-2     1.151   
   -7.300       0.1075E-2     1.151   
   -7.290       0.1076E-2     1.152   
   -7.280       0.1078E-2     1.152   
   -7.270       0.1079E-2     1.152   
   -7.260       0.1081E-2     1.152   
   -7.250       0.1083E-2     1.152   
   -7.240       0.1084E-2     1.152   
   -7.230       0.1086E-2     1.152   
   -7.220       0.1087E-2     1.152   
   -7.210       0.1089E-2     1.152   
   -7.200       0.1091E-2     1.153   
   -7.190       0.1092E-2     1.153   
   -7.180       0.1094E-2     1.153   
   -7.170       0.1095E-2     1.153   
   -7.160       0.1097E-2     1.153   
   -7.150       0.1099E-2     1.153   
   -7.140       0.1100E-2     1.153   
   -7.130       0.1102E-2     1.153   
   -7.120       0.1103E-2     1.153   
   -7.110       0.1105E-2     1.154   
   -7.100       0.1107E-2     1.154   
   -7.090       0.1108E-2     1.154   
   -7.080       0.1110E-2     1.154   
   -7.070       0.1112E-2     1.154   
   -7.060       0.1113E-2     1.154   
   -7.050       0.1115E-2     1.154   
   -7.040       0.1117E-2     1.154   
   -7.030       0.1118E-2     1.154   
   -7.020       0.1120E-2     1.155   
   -7.010       0.1122E-2     1.155   
   -7.000       0.1123E-2     1.155   
   -6.990       0.1125E-2     1.155   
   -6.980       0.1127E-2     1.155   
   -6.970       0.1128E-2     1.155   
   -6.960       0.1130E-2     1.155   
   -6.950       0.1132E-2     1.155   
   -6.940       0.1133E-2     1.155   
   -6.930       0.1135E-2     1.156   
   -6.920       0.1137E-2     1.156   
   -6.910       0.1138E-2     1.156   
   -6.900       0.1140E-2     1.156   
   -6.890       0.1142E-2     1.156   
   -6.880       0.1143E-2     1.156   
   -6.870       0.1145E-2     1.156   
   -6.860       0.1147E-2     1.156   
   -6.850       0.1149E-2     1.156   
   -6.840       0.1150E-2     1.157   
   -6.830       0.1152E-2     1.157   
   -6.820       0.1154E-2     1.157   
   -6.810       0.1156E-2     1.157   
   -6.800       0.1157E-2     1.157   
   -6.790       0.1159E-2     1.157   
   -6.780       0.1161E-2     1.157   
   -6.770       0.1163E-2     1.157   
   -6.760       0.1164E-2     1.157   
   -6.750       0.1166E-2     1.158   
   -6.740       0.1168E-2     1.158   
   -6.730       0.1170E-2     1.158   
   -6.720       0.1171E-2     1.158   
   -6.710       0.1173E-2     1.158   
   -6.700       0.1175E-2     1.158   
   -6.690       0.1177E-2     1.158   
   -6.680       0.1179E-2     1.158   
   -6.670       0.1180E-2     1.159   
   -6.660       0.1182E-2     1.159   
   -6.650       0.1184E-2     1.159   
   -6.640       0.1186E-2     1.159   
   -6.630       0.1188E-2     1.159   
   -6.620       0.1189E-2     1.159   
   -6.610       0.1191E-2     1.159   
   -6.600       0.1193E-2     1.159   
   -6.590       0.1195E-2     1.160   
   -6.580       0.1197E-2     1.160   
   -6.570       0.1199E-2     1.160   
   -6.560       0.1200E-2     1.160   
   -6.550       0.1202E-2     1.160   
   -6.540       0.1204E-2     1.160   
   -6.530       0.1206E-2     1.160   
   -6.520       0.1208E-2     1.160   
   -6.510       0.1210E-2     1.160   
   -6.500       0.1212E-2     1.161   
   -6.490       0.1213E-2     1.161   
   -6.480       0.1215E-2     1.161   
   -6.470       0.1217E-2     1.161   
   -6.460       0.1219E-2     1.161   
   -6.450       0.1221E-2     1.161   
   -6.440       0.1223E-2     1.161   
   -6.430       0.1225E-2     1.161   
   -6.420       0.1227E-2     1.162   
   -6.410       0.1229E-2     1.162   
   -6.400       0.1231E-2     1.162   
   -6.390       0.1232E-2     1.162   
   -6.380       0.1234E-2     1.162   
   -6.370       0.1236E-2     1.162   
   -6.360       0.1238E-2     1.162   
   -6.350       0.1240E-2     1.162   
   -6.340       0.1242E-2     1.163   
   -6.330       0.1244E-2     1.163   
   -6.320       0.1246E-2     1.163   
   -6.310       0.1248E-2     1.163   
   -6.300       0.1250E-2     1.163   
   -6.290       0.1252E-2     1.163   
   -6.280       0.1254E-2     1.163   
   -6.270       0.1256E-2     1.163   
   -6.260       0.1258E-2     1.164   
   -6.250       0.1260E-2     1.164   
   -6.240       0.1262E-2     1.164   
   -6.230       0.1264E-2     1.164   
   -6.220       0.1266E-2     1.164   
   -6.210       0.1268E-2     1.164   
   -6.200       0.1270E-2     1.164   
   -6.190       0.1272E-2     1.164   
   -6.180       0.1274E-2     1.165   
   -6.170       0.1276E-2     1.165   
   -6.160       0.1278E-2     1.165   
   -6.150       0.1280E-2     1.165   
   -6.140       0.1282E-2     1.165   
   -6.130       0.1284E-2     1.165   
   -6.120       0.1286E-2     1.165   
   -6.110       0.1288E-2     1.165   
   -6.100       0.1290E-2     1.166   
   -6.090       0.1292E-2     1.166   
   -6.080       0.1294E-2     1.166   
   -6.070       0.1296E-2     1.166   
   -6.060       0.1298E-2     1.166   
   -6.050       0.1301E-2     1.166   
   -6.040       0.1303E-2     1.166   
   -6.030       0.1305E-2     1.166   
   -6.020       0.1307E-2     1.167   
   -6.010       0.1309E-2     1.167   
   -6.000       0.1311E-2     1.167   
   -5.990       0.1313E-2     1.167   
   -5.980       0.1315E-2     1.167   
   -5.970       0.1317E-2     1.167   
   -5.960       0.1320E-2     1.167   
   -5.950       0.1322E-2     1.168   
   -5.940       0.1324E-2     1.168   
   -5.930       0.1326E-2     1.168   
   -5.920       0.1328E-2     1.168   
   -5.910       0.1330E-2     1.168   
   -5.900       0.1332E-2     1.168   
   -5.890       0.1335E-2     1.168   
   -5.880       0.1337E-2     1.168   
   -5.870       0.1339E-2     1.169   
   -5.860       0.1341E-2     1.169   
   -5.850       0.1343E-2     1.169   
   -5.840       0.1346E-2     1.169   
   -5.830       0.1348E-2     1.169   
   -5.820       0.1350E-2     1.169   
   -5.810       0.1352E-2     1.169   
   -5.800       0.1354E-2     1.170   
   -5.790       0.1357E-2     1.170   
   -5.780       0.1359E-2     1.170   
   -5.770       0.1361E-2     1.170   
   -5.760       0.1363E-2     1.170   
   -5.750       0.1366E-2     1.170   
   -5.740       0.1368E-2     1.170   
   -5.730       0.1370E-2     1.171   
   -5.720       0.1372E-2     1.171   
   -5.710       0.1375E-2     1.171   
   -5.700       0.1377E-2     1.171   
   -5.690       0.1379E-2     1.171   
   -5.680       0.1382E-2     1.171   
   -5.670       0.1384E-2     1.171   
   -5.660       0.1386E-2     1.171   
   -5.650       0.1388E-2     1.172   
   -5.640       0.1391E-2     1.172   
   -5.630       0.1393E-2     1.172   
   -5.620       0.1395E-2     1.172   
   -5.610       0.1398E-2     1.172   
   -5.600       0.1400E-2     1.172   
   -5.590       0.1402E-2     1.172   
   -5.580       0.1405E-2     1.173   
   -5.570       0.1407E-2     1.173   
   -5.560       0.1409E-2     1.173   
   -5.550       0.1412E-2     1.173   
   -5.540       0.1414E-2     1.173   
   -5.530       0.1417E-2     1.173   
   -5.520       0.1419E-2     1.173   
   -5.510       0.1421E-2     1.174   
   -5.500       0.1424E-2     1.174   
   -5.490       0.1426E-2     1.174   
   -5.480       0.1429E-2     1.174   
   -5.470       0.1431E-2     1.174   
   -5.460       0.1433E-2     1.174   
   -5.450       0.1436E-2     1.174   
   -5.440       0.1438E-2     1.175   
   -5.430       0.1441E-2     1.175   
   -5.420       0.1443E-2     1.175   
   -5.410       0.1446E-2     1.175   
   -5.400       0.1448E-2     1.175   
   -5.390       0.1450E-2     1.175   
   -5.380       0.1453E-2     1.175   
   -5.370       0.1455E-2     1.176   
   -5.360       0.1458E-2     1.176   
   -5.350       0.1460E-2     1.176   
   -5.340       0.1463E-2     1.176   
   -5.330       0.1465E-2     1.176   
   -5.320       0.1468E-2     1.176   
   -5.310       0.1470E-2     1.176   
   -5.300       0.1473E-2     1.177   
   -5.290       0.1475E-2     1.177   
   -5.280       0.1478E-2     1.177   
   -5.270       0.1481E-2     1.177   
   -5.260       0.1483E-2     1.177   
   -5.250       0.1486E-2     1.177   
   -5.240       0.1488E-2     1.177   
   -5.230       0.1491E-2     1.178   
   -5.220       0.1493E-2     1.178   
   -5.210       0.1496E-2     1.178   
   -5.200       0.1499E-2     1.178   
   -5.190       0.1501E-2     1.178   
   -5.180       0.1504E-2     1.178   
   -5.170       0.1506E-2     1.179   
   -5.160       0.1509E-2     1.179   
   -5.150       0.1512E-2     1.179   
   -5.140       0.1514E-2     1.179   
   -5.130       0.1517E-2     1.179   
