#                                                           
#   __   __     _        __  __       ____      U  ___  u   
#   \ \ / / U  /"\  U u |" \/ "| u U | __") u    \/"_ \/    
#    \ V /   \/ _ \/   \| |\/| |/   \|  _ \/     | | | |    
#   U_|"|_u  / ___ \    | |  | |     | |_) | .-,_| |_| |    
#     |_|   /_/   \_\   |_|  |_|     |____/   \_)-\___/     
# .-,//|(_   \\    >>  <<,-,,-.     _|| \\_        \\       
#  \_) (__) (__)  (__)  (./  \.)   (__) (__)      (__)      
#                                                           
#                                                           
#        Version 4.3.0 Revision 15341 Hash c146fb2          
#                      MPI+SLK Build                        
#                http://www.yambo-code.org                  
#
# Absorption @ Q(2) [iku] : 0.500000  0.250000  0.000000
#
#
# - Energies      are Teter 93(XC)
# - Wavefunctions are Teter 93(XC)
#
# - The Green`s function is Resonant -
#
#   BSK|Identifier              :6838
#      |Dimension               :96
#      |Bands                   :3 - 10
#      |Exchange           [res]: yes
#      |Correlation        [res]: yes
#      |Kernel`s coupling       : no
#      |Exchange           [cpl]: no
#      |Correlation        [cpl]: no
#      |W interaction is bare   : no
#      |ALDA kernel in R-space  : no
#      |RL vectors    [exchange]:51
#      |RL vectors [correlation]:51
#      |E/h energy range    [ev]:-1.000000 - -1.000000
#      |Coupling range     [o/o]: 100.0000 -  100.0000
#    W |Interaction is diagonal : no
#      |Matrix size             :51
#      |Bands                   :1 - 60
#      |e/h energy range    [ev]:-1.000000 - -1.000000
#      |Poles              [o/o]: 100.0000
#      |RL vectors in the sum   :3473
#      |[r,Vnl] included        : yes
#      |Field direction         :0.1000E-4  0.000000  0.000000
#      |Coulomb Cutoff          :none
#      |xc-Kernel               :none
#   RIM|RL components      [col]:0
#      |Random points      [col]:0
#
#    E/ev[1]      EPS-Im[2]    EPS-Re[3]    EPSo-Im[4]   EPSo-Re[5]
#
   -10.00       0.9782E-3     1.144       0.7494E-3     1.126   
   -9.990       0.9796E-3     1.144       0.7503E-3     1.126   
   -9.980       0.9809E-3     1.144       0.7512E-3     1.126   
   -9.970       0.9823E-3     1.145       0.7522E-3     1.126   
   -9.960       0.9836E-3     1.145       0.7531E-3     1.126   
   -9.950       0.9850E-3     1.145       0.7540E-3     1.127   
   -9.940       0.9864E-3     1.145       0.7549E-3     1.127   
   -9.930       0.9877E-3     1.145       0.7558E-3     1.127   
   -9.920       0.9891E-3     1.145       0.7567E-3     1.127   
   -9.910       0.9905E-3     1.145       0.7576E-3     1.127   
   -9.900       0.9918E-3     1.145       0.7586E-3     1.127   
   -9.890       0.9932E-3     1.145       0.7595E-3     1.127   
   -9.880       0.9946E-3     1.145       0.7604E-3     1.127   
   -9.870       0.9960E-3     1.146       0.7613E-3     1.127   
   -9.860       0.9974E-3     1.146       0.7623E-3     1.127   
   -9.850       0.9987E-3     1.146       0.7632E-3     1.127   
   -9.840       0.1000E-2     1.146       0.7641E-3     1.127   
   -9.830       0.1002E-2     1.146       0.7650E-3     1.127   
   -9.820       0.1003E-2     1.146       0.7660E-3     1.128   
   -9.810       0.1004E-2     1.146       0.7669E-3     1.128   
   -9.800       0.1006E-2     1.146       0.7679E-3     1.128   
   -9.790       0.1007E-2     1.146       0.7688E-3     1.128   
   -9.780       0.1009E-2     1.146       0.7697E-3     1.128   
   -9.770       0.1010E-2     1.147       0.7707E-3     1.128   
   -9.760       0.1011E-2     1.147       0.7716E-3     1.128   
   -9.750       0.1013E-2     1.147       0.7726E-3     1.128   
   -9.740       0.1014E-2     1.147       0.7735E-3     1.128   
   -9.730       0.1016E-2     1.147       0.7745E-3     1.128   
   -9.720       0.1017E-2     1.147       0.7754E-3     1.128   
   -9.710       0.1018E-2     1.147       0.7764E-3     1.128   
   -9.700       0.1020E-2     1.147       0.7773E-3     1.128   
   -9.690       0.1021E-2     1.147       0.7783E-3     1.129   
   -9.680       0.1023E-2     1.147       0.7792E-3     1.129   
   -9.670       0.1024E-2     1.148       0.7802E-3     1.129   
   -9.660       0.1026E-2     1.148       0.7812E-3     1.129   
   -9.650       0.1027E-2     1.148       0.7821E-3     1.129   
   -9.640       0.1029E-2     1.148       0.7831E-3     1.129   
   -9.630       0.1030E-2     1.148       0.7840E-3     1.129   
   -9.620       0.1031E-2     1.148       0.7850E-3     1.129   
   -9.610       0.1033E-2     1.148       0.7860E-3     1.129   
   -9.600       0.1034E-2     1.148       0.7870E-3     1.129   
   -9.590       0.1036E-2     1.148       0.7879E-3     1.129   
   -9.580       0.1037E-2     1.148       0.7889E-3     1.129   
   -9.570       0.1039E-2     1.149       0.7899E-3     1.129   
   -9.560       0.1040E-2     1.149       0.7909E-3     1.130   
   -9.550       0.1042E-2     1.149       0.7919E-3     1.130   
   -9.540       0.1043E-2     1.149       0.7928E-3     1.130   
   -9.530       0.1045E-2     1.149       0.7938E-3     1.130   
   -9.520       0.1046E-2     1.149       0.7948E-3     1.130   
   -9.510       0.1048E-2     1.149       0.7958E-3     1.130   
   -9.500       0.1049E-2     1.149       0.7968E-3     1.130   
   -9.490       0.1051E-2     1.149       0.7978E-3     1.130   
   -9.480       0.1052E-2     1.150       0.7988E-3     1.130   
   -9.470       0.1054E-2     1.150       0.7998E-3     1.130   
   -9.460       0.1055E-2     1.150       0.8008E-3     1.130   
   -9.450       0.1057E-2     1.150       0.8018E-3     1.130   
   -9.440       0.1058E-2     1.150       0.8028E-3     1.131   
   -9.430       0.1060E-2     1.150       0.8038E-3     1.131   
   -9.420       0.1061E-2     1.150       0.8048E-3     1.131   
   -9.410       0.1063E-2     1.150       0.8058E-3     1.131   
   -9.400       0.1064E-2     1.150       0.8068E-3     1.131   
   -9.390       0.1066E-2     1.150       0.8078E-3     1.131   
   -9.380       0.1067E-2     1.151       0.8088E-3     1.131   
   -9.370       0.1069E-2     1.151       0.8098E-3     1.131   
   -9.360       0.1070E-2     1.151       0.8109E-3     1.131   
   -9.350       0.1072E-2     1.151       0.8119E-3     1.131   
   -9.340       0.1074E-2     1.151       0.8129E-3     1.131   
   -9.330       0.1075E-2     1.151       0.8139E-3     1.131   
   -9.320       0.1077E-2     1.151       0.8150E-3     1.131   
   -9.310       0.1078E-2     1.151       0.8160E-3     1.132   
   -9.300       0.1080E-2     1.151       0.8170E-3     1.132   
   -9.290       0.1081E-2     1.152       0.8180E-3     1.132   
   -9.280       0.1083E-2     1.152       0.8191E-3     1.132   
   -9.270       0.1084E-2     1.152       0.8201E-3     1.132   
   -9.260       0.1086E-2     1.152       0.8212E-3     1.132   
   -9.250       0.1088E-2     1.152       0.8222E-3     1.132   
   -9.240       0.1089E-2     1.152       0.8232E-3     1.132   
   -9.230       0.1091E-2     1.152       0.8243E-3     1.132   
   -9.220       0.1092E-2     1.152       0.8253E-3     1.132   
   -9.210       0.1094E-2     1.152       0.8264E-3     1.132   
   -9.200       0.1096E-2     1.153       0.8274E-3     1.132   
   -9.190       0.1097E-2     1.153       0.8285E-3     1.133   
   -9.180       0.1099E-2     1.153       0.8295E-3     1.133   
   -9.170       0.1100E-2     1.153       0.8306E-3     1.133   
   -9.160       0.1102E-2     1.153       0.8316E-3     1.133   
   -9.150       0.1104E-2     1.153       0.8327E-3     1.133   
   -9.140       0.1105E-2     1.153       0.8338E-3     1.133   
   -9.130       0.1107E-2     1.153       0.8348E-3     1.133   
   -9.120       0.1108E-2     1.153       0.8359E-3     1.133   
   -9.110       0.1110E-2     1.153       0.8370E-3     1.133   
   -9.100       0.1112E-2     1.154       0.8380E-3     1.133   
   -9.090       0.1113E-2     1.154       0.8391E-3     1.133   
   -9.080       0.1115E-2     1.154       0.8402E-3     1.133   
   -9.070       0.1117E-2     1.154       0.8413E-3     1.134   
   -9.060       0.1118E-2     1.154       0.8423E-3     1.134   
   -9.050       0.1120E-2     1.154       0.8434E-3     1.134   
   -9.040       0.1122E-2     1.154       0.8445E-3     1.134   
   -9.030       0.1123E-2     1.154       0.8456E-3     1.134   
   -9.020       0.1125E-2     1.155       0.8467E-3     1.134   
   -9.010       0.1127E-2     1.155       0.8478E-3     1.134   
   -9.000       0.1128E-2     1.155       0.8488E-3     1.134   
   -8.990       0.1130E-2     1.155       0.8499E-3     1.134   
   -8.980       0.1132E-2     1.155       0.8510E-3     1.134   
   -8.970       0.1133E-2     1.155       0.8521E-3     1.134   
   -8.960       0.1135E-2     1.155       0.8532E-3     1.134   
   -8.950       0.1137E-2     1.155       0.8543E-3     1.135   
   -8.940       0.1138E-2     1.155       0.8554E-3     1.135   
   -8.930       0.1140E-2     1.156       0.8565E-3     1.135   
   -8.920       0.1142E-2     1.156       0.8577E-3     1.135   
   -8.910       0.1143E-2     1.156       0.8588E-3     1.135   
   -8.900       0.1145E-2     1.156       0.8599E-3     1.135   
   -8.890       0.1147E-2     1.156       0.8610E-3     1.135   
   -8.880       0.1149E-2     1.156       0.8621E-3     1.135   
   -8.870       0.1150E-2     1.156       0.8632E-3     1.135   
   -8.860       0.1152E-2     1.156       0.8644E-3     1.135   
   -8.850       0.1154E-2     1.156       0.8655E-3     1.135   
   -8.840       0.1155E-2     1.157       0.8666E-3     1.136   
   -8.830       0.1157E-2     1.157       0.8677E-3     1.136   
   -8.820       0.1159E-2     1.157       0.8689E-3     1.136   
   -8.810       0.1161E-2     1.157       0.8700E-3     1.136   
   -8.800       0.1162E-2     1.157       0.8711E-3     1.136   
   -8.790       0.1164E-2     1.157       0.8723E-3     1.136   
   -8.780       0.1166E-2     1.157       0.8734E-3     1.136   
   -8.770       0.1168E-2     1.157       0.8745E-3     1.136   
   -8.760       0.1169E-2     1.157       0.8757E-3     1.136   
   -8.750       0.1171E-2     1.158       0.8768E-3     1.136   
   -8.740       0.1173E-2     1.158       0.8780E-3     1.136   
   -8.730       0.1175E-2     1.158       0.8791E-3     1.136   
   -8.720       0.1177E-2     1.158       0.8803E-3     1.137   
   -8.710       0.1178E-2     1.158       0.8814E-3     1.137   
   -8.700       0.1180E-2     1.158       0.8826E-3     1.137   
   -8.690       0.1182E-2     1.158       0.8838E-3     1.137   
   -8.680       0.1184E-2     1.158       0.8849E-3     1.137   
   -8.670       0.1185E-2     1.159       0.8861E-3     1.137   
   -8.660       0.1187E-2     1.159       0.8873E-3     1.137   
   -8.650       0.1189E-2     1.159       0.8884E-3     1.137   
   -8.640       0.1191E-2     1.159       0.8896E-3     1.137   
   -8.630       0.1193E-2     1.159       0.8908E-3     1.137   
   -8.620       0.1195E-2     1.159       0.8920E-3     1.137   
   -8.610       0.1196E-2     1.159       0.8931E-3     1.138   
   -8.600       0.1198E-2     1.159       0.8943E-3     1.138   
   -8.590       0.1200E-2     1.159       0.8955E-3     1.138   
   -8.580       0.1202E-2     1.160       0.8967E-3     1.138   
   -8.570       0.1204E-2     1.160       0.8979E-3     1.138   
   -8.560       0.1206E-2     1.160       0.8991E-3     1.138   
   -8.550       0.1207E-2     1.160       0.9003E-3     1.138   
   -8.540       0.1209E-2     1.160       0.9015E-3     1.138   
   -8.530       0.1211E-2     1.160       0.9027E-3     1.138   
   -8.520       0.1213E-2     1.160       0.9039E-3     1.138   
   -8.510       0.1215E-2     1.160       0.9051E-3     1.138   
   -8.500       0.1217E-2     1.161       0.9063E-3     1.139   
   -8.490       0.1219E-2     1.161       0.9075E-3     1.139   
   -8.480       0.1220E-2     1.161       0.9087E-3     1.139   
   -8.470       0.1222E-2     1.161       0.9099E-3     1.139   
   -8.460       0.1224E-2     1.161       0.9111E-3     1.139   
   -8.450       0.1226E-2     1.161       0.9123E-3     1.139   
   -8.440       0.1228E-2     1.161       0.9135E-3     1.139   
   -8.430       0.1230E-2     1.161       0.9148E-3     1.139   
   -8.420       0.1232E-2     1.162       0.9160E-3     1.139   
   -8.410       0.1234E-2     1.162       0.9172E-3     1.139   
   -8.400       0.1236E-2     1.162       0.9185E-3     1.139   
   -8.390       0.1238E-2     1.162       0.9197E-3     1.140   
   -8.380       0.1240E-2     1.162       0.9209E-3     1.140   
   -8.370       0.1241E-2     1.162       0.9222E-3     1.140   
   -8.360       0.1243E-2     1.162       0.9234E-3     1.140   
   -8.350       0.1245E-2     1.162       0.9246E-3     1.140   
   -8.340       0.1247E-2     1.163       0.9259E-3     1.140   
   -8.330       0.1249E-2     1.163       0.9271E-3     1.140   
   -8.320       0.1251E-2     1.163       0.9284E-3     1.140   
   -8.310       0.1253E-2     1.163       0.9296E-3     1.140   
   -8.300       0.1255E-2     1.163       0.9309E-3     1.140   
   -8.290       0.1257E-2     1.163       0.9322E-3     1.140   
   -8.280       0.1259E-2     1.163       0.9334E-3     1.141   
   -8.270       0.1261E-2     1.163       0.9347E-3     1.141   
   -8.260       0.1263E-2     1.164       0.9360E-3     1.141   
   -8.250       0.1265E-2     1.164       0.9372E-3     1.141   
   -8.240       0.1267E-2     1.164       0.9385E-3     1.141   
   -8.230       0.1269E-2     1.164       0.9398E-3     1.141   
   -8.220       0.1271E-2     1.164       0.9410E-3     1.141   
   -8.210       0.1273E-2     1.164       0.9423E-3     1.141   
   -8.200       0.1275E-2     1.164       0.9436E-3     1.141   
   -8.190       0.1277E-2     1.164       0.9449E-3     1.141   
   -8.180       0.1279E-2     1.165       0.9462E-3     1.142   
   -8.170       0.1281E-2     1.165       0.9475E-3     1.142   
   -8.160       0.1283E-2     1.165       0.9488E-3     1.142   
   -8.150       0.1285E-2     1.165       0.9501E-3     1.142   
   -8.140       0.1287E-2     1.165       0.9514E-3     1.142   
   -8.130       0.1289E-2     1.165       0.9527E-3     1.142   
   -8.120       0.1291E-2     1.165       0.9540E-3     1.142   
   -8.110       0.1293E-2     1.165       0.9553E-3     1.142   
   -8.100       0.1295E-2     1.166       0.9566E-3     1.142   
   -8.090       0.1297E-2     1.166       0.9579E-3     1.142   
   -8.080       0.1299E-2     1.166       0.9592E-3     1.142   
   -8.070       0.1302E-2     1.166       0.9605E-3     1.143   
   -8.060       0.1304E-2     1.166       0.9618E-3     1.143   
   -8.050       0.1306E-2     1.166       0.9632E-3     1.143   
   -8.040       0.1308E-2     1.166       0.9645E-3     1.143   
   -8.030       0.1310E-2     1.167       0.9658E-3     1.143   
   -8.020       0.1312E-2     1.167       0.9671E-3     1.143   
   -8.010       0.1314E-2     1.167       0.9685E-3     1.143   
   -8.000       0.1316E-2     1.167       0.9698E-3     1.143   
   -7.990       0.1318E-2     1.167       0.9712E-3     1.143   
   -7.980       0.1320E-2     1.167       0.9725E-3     1.143   
   -7.970       0.1323E-2     1.167       0.9738E-3     1.144   
   -7.960       0.1325E-2     1.167       0.9752E-3     1.144   
   -7.950       0.1327E-2     1.168       0.9765E-3     1.144   
   -7.940       0.1329E-2     1.168       0.9779E-3     1.144   
   -7.930       0.1331E-2     1.168       0.9793E-3     1.144   
   -7.920       0.1333E-2     1.168       0.9806E-3     1.144   
   -7.910       0.1335E-2     1.168       0.9820E-3     1.144   
   -7.900       0.1338E-2     1.168       0.9833E-3     1.144   
   -7.890       0.1340E-2     1.168       0.9847E-3     1.144   
   -7.880       0.1342E-2     1.169       0.9861E-3     1.144   
   -7.870       0.1344E-2     1.169       0.9875E-3     1.145   
   -7.860       0.1346E-2     1.169       0.9888E-3     1.145   
   -7.850       0.1348E-2     1.169       0.9902E-3     1.145   
   -7.840       0.1351E-2     1.169       0.9916E-3     1.145   
   -7.830       0.1353E-2     1.169       0.9930E-3     1.145   
   -7.820       0.1355E-2     1.169       0.9944E-3     1.145   
   -7.810       0.1357E-2     1.169       0.9958E-3     1.145   
   -7.800       0.1359E-2     1.170       0.9972E-3     1.145   
   -7.790       0.1362E-2     1.170       0.9986E-3     1.145   
   -7.780       0.1364E-2     1.170       0.1000E-2     1.145   
   -7.770       0.1366E-2     1.170       0.1001E-2     1.145   
   -7.760       0.1368E-2     1.170       0.1003E-2     1.146   
   -7.750       0.1371E-2     1.170       0.1004E-2     1.146   
   -7.740       0.1373E-2     1.170       0.1006E-2     1.146   
   -7.730       0.1375E-2     1.171       0.1007E-2     1.146   
   -7.720       0.1377E-2     1.171       0.1008E-2     1.146   
   -7.710       0.1380E-2     1.171       0.1010E-2     1.146   
   -7.700       0.1382E-2     1.171       0.1011E-2     1.146   
   -7.690       0.1384E-2     1.171       0.1013E-2     1.146   
   -7.680       0.1386E-2     1.171       0.1014E-2     1.146   
   -7.670       0.1389E-2     1.171       0.1016E-2     1.147   
   -7.660       0.1391E-2     1.172       0.1017E-2     1.147   
   -7.650       0.1393E-2     1.172       0.1018E-2     1.147   
   -7.640       0.1396E-2     1.172       0.1020E-2     1.147   
   -7.630       0.1398E-2     1.172       0.1021E-2     1.147   
   -7.620       0.1400E-2     1.172       0.1023E-2     1.147   
   -7.610       0.1403E-2     1.172       0.1024E-2     1.147   
   -7.600       0.1405E-2     1.172       0.1026E-2     1.147   
   -7.590       0.1407E-2     1.172       0.1027E-2     1.147   
   -7.580       0.1410E-2     1.173       0.1029E-2     1.147   
   -7.570       0.1412E-2     1.173       0.1030E-2     1.148   
   -7.560       0.1414E-2     1.173       0.1032E-2     1.148   
   -7.550       0.1417E-2     1.173       0.1033E-2     1.148   
   -7.540       0.1419E-2     1.173       0.1034E-2     1.148   
   -7.530       0.1421E-2     1.173       0.1036E-2     1.148   
   -7.520       0.1424E-2     1.173       0.1037E-2     1.148   
   -7.510       0.1426E-2     1.174       0.1039E-2     1.148   
   -7.500       0.1429E-2     1.174       0.1040E-2     1.148   
   -7.490       0.1431E-2     1.174       0.1042E-2     1.148   
   -7.480       0.1433E-2     1.174       0.1043E-2     1.148   
   -7.470       0.1436E-2     1.174       0.1045E-2     1.149   
   -7.460       0.1438E-2     1.174       0.1046E-2     1.149   
   -7.450       0.1441E-2     1.174       0.1048E-2     1.149   
   -7.440       0.1443E-2     1.175       0.1049E-2     1.149   
   -7.430       0.1445E-2     1.175       0.1051E-2     1.149   
   -7.420       0.1448E-2     1.175       0.1052E-2     1.149   
   -7.410       0.1450E-2     1.175       0.1054E-2     1.149   
   -7.400       0.1453E-2     1.175       0.1055E-2     1.149   
   -7.390       0.1455E-2     1.175       0.1057E-2     1.149   
   -7.380       0.1458E-2     1.176       0.1059E-2     1.150   
   -7.370       0.1460E-2     1.176       0.1060E-2     1.150   
   -7.360       0.1463E-2     1.176       0.1062E-2     1.150   
   -7.350       0.1465E-2     1.176       0.1063E-2     1.150   
   -7.340       0.1468E-2     1.176       0.1065E-2     1.150   
   -7.330       0.1470E-2     1.176       0.1066E-2     1.150   
   -7.320       0.1473E-2     1.176       0.1068E-2     1.150   
   -7.310       0.1475E-2     1.177       0.1069E-2     1.150   
   -7.300       0.1478E-2     1.177       0.1071E-2     1.150   
   -7.290       0.1480E-2     1.177       0.1072E-2     1.150   
   -7.280       0.1483E-2     1.177       0.1074E-2     1.151   
   -7.270       0.1485E-2     1.177       0.1076E-2     1.151   
   -7.260       0.1488E-2     1.177       0.1077E-2     1.151   
