#                                                           
# ooooo   oooo ..     ooo        ooo ooooooooo.    .oooo.   
#  `88.   .8" .88.    `88.       .88 `88"   `Y8b  dP"  `Yb  
#   `88. .8" .8"88.    888b     d"88  88     888 88      88 
#    `88.8" .8" `88.   8 Y88. .P  88  88oooo888" 88      88 
#     `88" .88ooo888.  8  `888"   88  88    `88b 88      88 
#      88 .8"     `88. 8    Y     88  88    .88P `8b    d8" 
#     o88o88o      888o8          88 o88bood8P"   `Ybod8P"  
#                                                           
#                                                           
#        Version 4.4.0 Revision 16741 Hash d917b3d70        
#               Branch is devel-BSE-finite-q                
#                   MPI+SLK+OpenMP Build                    
#                 http://www.yambo-code.org                 
#
# Absorption @ Q(1) [q->0 direction] :0.5774E-5 0.5774E-5 0.5774E-5
#
#
# - Energies      are Teter 93(XC)
# - Wavefunctions are Teter 93(XC)
#
# - The Green`s function is Resonant -
# - Using the Length Gauge -
# - [r,Vnl] *is* included -
#
#
#    E/ev[1]      EPS-Im[2]    EPS-Re[3]    EPSo-Im[4]   EPSo-Re[5]
#
   -10.00       0.7950E-2     2.017       0.6113E-2     1.963   
   -9.990       0.7963E-2     2.018       0.6120E-2     1.964   
   -9.980       0.7975E-2     2.019       0.6128E-2     1.964   
   -9.970       0.7988E-2     2.020       0.6136E-2     1.965   
   -9.960       0.8000E-2     2.020       0.6144E-2     1.966   
   -9.950       0.8013E-2     2.021       0.6152E-2     1.966   
   -9.940       0.8026E-2     2.022       0.6160E-2     1.967   
   -9.930       0.8038E-2     2.023       0.6168E-2     1.967   
   -9.920       0.8051E-2     2.024       0.6176E-2     1.968   
   -9.910       0.8063E-2     2.025       0.6184E-2     1.969   
   -9.900       0.8076E-2     2.025       0.6191E-2     1.969   
   -9.890       0.8089E-2     2.026       0.6199E-2     1.970   
   -9.880       0.8102E-2     2.027       0.6207E-2     1.971   
   -9.870       0.8114E-2     2.028       0.6215E-2     1.971   
   -9.860       0.8127E-2     2.029       0.6223E-2     1.972   
   -9.850       0.8140E-2     2.029       0.6231E-2     1.972   
   -9.840       0.8153E-2     2.030       0.6240E-2     1.973   
   -9.830       0.8166E-2     2.031       0.6248E-2     1.974   
   -9.820       0.8179E-2     2.032       0.6256E-2     1.974   
   -9.810       0.8192E-2     2.033       0.6264E-2     1.975   
   -9.800       0.8205E-2     2.033       0.6272E-2     1.976   
   -9.790       0.8218E-2     2.034       0.6280E-2     1.976   
   -9.780       0.8231E-2     2.035       0.6288E-2     1.977   
   -9.770       0.8244E-2     2.036       0.6296E-2     1.977   
   -9.760       0.8257E-2     2.037       0.6304E-2     1.978   
   -9.750       0.8270E-2     2.038       0.6313E-2     1.979   
   -9.740       0.8284E-2     2.038       0.6321E-2     1.979   
   -9.730       0.8297E-2     2.039       0.6329E-2     1.980   
   -9.720       0.8310E-2     2.040       0.6337E-2     1.981   
   -9.710       0.8323E-2     2.041       0.6346E-2     1.981   
   -9.700       0.8337E-2     2.042       0.6354E-2     1.982   
   -9.690       0.8350E-2     2.043       0.6362E-2     1.983   
   -9.680       0.8364E-2     2.043       0.6370E-2     1.983   
   -9.670       0.8377E-2     2.044       0.6379E-2     1.984   
   -9.660       0.8390E-2     2.045       0.6387E-2     1.984   
   -9.650       0.8404E-2     2.046       0.6395E-2     1.985   
   -9.640       0.8417E-2     2.047       0.6404E-2     1.986   
   -9.630       0.8431E-2     2.048       0.6412E-2     1.986   
   -9.620       0.8445E-2     2.048       0.6420E-2     1.987   
   -9.610       0.8458E-2     2.049       0.6429E-2     1.988   
   -9.600       0.8472E-2     2.050       0.6437E-2     1.988   
   -9.590       0.8486E-2     2.051       0.6446E-2     1.989   
   -9.580       0.8499E-2     2.052       0.6454E-2     1.990   
   -9.570       0.8513E-2     2.053       0.6463E-2     1.990   
   -9.560       0.8527E-2     2.054       0.6471E-2     1.991   
   -9.550       0.8541E-2     2.054       0.6480E-2     1.991   
   -9.540       0.8554E-2     2.055       0.6488E-2     1.992   
   -9.530       0.8568E-2     2.056       0.6497E-2     1.993   
   -9.520       0.8582E-2     2.057       0.6505E-2     1.993   
   -9.510       0.8596E-2     2.058       0.6514E-2     1.994   
   -9.500       0.8610E-2     2.059       0.6523E-2     1.995   
   -9.490       0.8624E-2     2.060       0.6531E-2     1.995   
   -9.480       0.8638E-2     2.060       0.6540E-2     1.996   
   -9.470       0.8652E-2     2.061       0.6548E-2     1.997   
   -9.460       0.8666E-2     2.062       0.6557E-2     1.997   
   -9.450       0.8681E-2     2.063       0.6566E-2     1.998   
   -9.440       0.8695E-2     2.064       0.6575E-2     1.999   
   -9.430       0.8709E-2     2.065       0.6583E-2     1.999   
   -9.420       0.8723E-2     2.066       0.6592E-2     2.000   
   -9.410       0.8738E-2     2.066       0.6601E-2     2.001   
   -9.400       0.8752E-2     2.067       0.6610E-2     2.001   
   -9.390       0.8766E-2     2.068       0.6618E-2     2.002   
   -9.380       0.8781E-2     2.069       0.6627E-2     2.003   
   -9.370       0.8795E-2     2.070       0.6636E-2     2.003   
   -9.360       0.8810E-2     2.071       0.6645E-2     2.004   
   -9.350       0.8824E-2     2.072       0.6654E-2     2.005   
   -9.340       0.8839E-2     2.073       0.6663E-2     2.005   
   -9.330       0.8853E-2     2.074       0.6671E-2     2.006   
   -9.320       0.8868E-2     2.074       0.6680E-2     2.007   
   -9.310       0.8883E-2     2.075       0.6689E-2     2.007   
   -9.300       0.8897E-2     2.076       0.6698E-2     2.008   
   -9.290       0.8912E-2     2.077       0.6707E-2     2.009   
   -9.280       0.8927E-2     2.078       0.6716E-2     2.009   
   -9.270       0.8942E-2     2.079       0.6725E-2     2.010   
   -9.260       0.8956E-2     2.080       0.6734E-2     2.011   
   -9.250       0.8971E-2     2.081       0.6743E-2     2.011   
   -9.240       0.8986E-2     2.082       0.6752E-2     2.012   
   -9.230       0.9001E-2     2.082       0.6761E-2     2.013   
   -9.220       0.9016E-2     2.083       0.6770E-2     2.013   
   -9.210       0.9031E-2     2.084       0.6780E-2     2.014   
   -9.200       0.9046E-2     2.085       0.6789E-2     2.015   
   -9.190       0.9061E-2     2.086       0.6798E-2     2.015   
   -9.180       0.9076E-2     2.087       0.6807E-2     2.016   
   -9.170       0.9092E-2     2.088       0.6816E-2     2.017   
   -9.160       0.9107E-2     2.089       0.6825E-2     2.017   
   -9.150       0.9122E-2     2.090       0.6835E-2     2.018   
   -9.140       0.9137E-2     2.091       0.6844E-2     2.019   
   -9.130       0.9153E-2     2.092       0.6853E-2     2.019   
   -9.120       0.9168E-2     2.092       0.6862E-2     2.020   
   -9.110       0.9183E-2     2.093       0.6872E-2     2.021   
   -9.100       0.9199E-2     2.094       0.6881E-2     2.022   
   -9.090       0.9214E-2     2.095       0.6890E-2     2.022   
   -9.080       0.9230E-2     2.096       0.6900E-2     2.023   
   -9.070       0.9245E-2     2.097       0.6909E-2     2.024   
   -9.060       0.9261E-2     2.098       0.6919E-2     2.024   
   -9.050       0.9277E-2     2.099       0.6928E-2     2.025   
   -9.040       0.9292E-2     2.100       0.6937E-2     2.026   
   -9.030       0.9308E-2     2.101       0.6947E-2     2.026   
   -9.020       0.9324E-2     2.102       0.6956E-2     2.027   
   -9.010       0.9340E-2     2.103       0.6966E-2     2.028   
   -9.000       0.9356E-2     2.104       0.6975E-2     2.028   
   -8.990       0.9371E-2     2.104       0.6985E-2     2.029   
   -8.980       0.9387E-2     2.105       0.6994E-2     2.030   
   -8.970       0.9403E-2     2.106       0.7004E-2     2.031   
   -8.960       0.9419E-2     2.107       0.7014E-2     2.031   
   -8.950       0.9435E-2     2.108       0.7023E-2     2.032   
   -8.940       0.9451E-2     2.109       0.7033E-2     2.033   
   -8.930       0.9468E-2     2.110       0.7043E-2     2.033   
   -8.920       0.9484E-2     2.111       0.7052E-2     2.034   
   -8.910       0.9500E-2     2.112       0.7062E-2     2.035   
   -8.900       0.9516E-2     2.113       0.7072E-2     2.035   
   -8.890       0.9533E-2     2.114       0.7081E-2     2.036   
   -8.880       0.9549E-2     2.115       0.7091E-2     2.037   
   -8.870       0.9565E-2     2.116       0.7101E-2     2.038   
   -8.860       0.9582E-2     2.117       0.7111E-2     2.038   
   -8.850       0.9598E-2     2.118       0.7120E-2     2.039   
   -8.840       0.9615E-2     2.119       0.7130E-2     2.040   
   -8.830       0.9631E-2     2.120       0.7140E-2     2.040   
   -8.820       0.9648E-2     2.121       0.7150E-2     2.041   
   -8.810       0.9664E-2     2.122       0.7160E-2     2.042   
   -8.800       0.9681E-2     2.123       0.7170E-2     2.043   
   -8.790       0.9698E-2     2.124       0.7180E-2     2.043   
   -8.780       0.9715E-2     2.125       0.7190E-2     2.044   
   -8.770       0.9731E-2     2.125       0.7200E-2     2.045   
   -8.760       0.9748E-2     2.126       0.7210E-2     2.045   
   -8.750       0.9765E-2     2.127       0.7220E-2     2.046   
   -8.740       0.9782E-2     2.128       0.7230E-2     2.047   
   -8.730       0.9799E-2     2.129       0.7240E-2     2.048   
   -8.720       0.9816E-2     2.130       0.7250E-2     2.048   
   -8.710       0.9833E-2     2.131       0.7260E-2     2.049   
   -8.700       0.9850E-2     2.132       0.7270E-2     2.050   
   -8.690       0.9867E-2     2.133       0.7280E-2     2.051   
   -8.680       0.9885E-2     2.134       0.7290E-2     2.051   
   -8.670       0.9902E-2     2.135       0.7301E-2     2.052   
   -8.660       0.9919E-2     2.136       0.7311E-2     2.053   
   -8.650       0.9936E-2     2.137       0.7321E-2     2.053   
   -8.640       0.9954E-2     2.138       0.7331E-2     2.054   
   -8.630       0.9971E-2     2.139       0.7342E-2     2.055   
   -8.620       0.9989E-2     2.140       0.7352E-2     2.056   
   -8.610       0.1001E-1     2.141       0.7362E-2     2.056   
   -8.600       0.1002E-1     2.142       0.7373E-2     2.057   
   -8.590       0.1004E-1     2.143       0.7383E-2     2.058   
   -8.580       0.1006E-1     2.144       0.7393E-2     2.059   
   -8.570       0.1008E-1     2.145       0.7404E-2     2.059   
   -8.560       0.1009E-1     2.146       0.7414E-2     2.060   
   -8.550       0.1011E-1     2.147       0.7425E-2     2.061   
   -8.540       0.1013E-1     2.148       0.7435E-2     2.062   
   -8.530       0.1015E-1     2.149       0.7446E-2     2.062   
   -8.520       0.1017E-1     2.150       0.7456E-2     2.063   
   -8.510       0.1018E-1     2.151       0.7467E-2     2.064   
   -8.500       0.1020E-1     2.152       0.7477E-2     2.065   
   -8.490       0.1022E-1     2.153       0.7488E-2     2.065   
   -8.480       0.1024E-1     2.154       0.7498E-2     2.066   
   -8.470       0.1026E-1     2.155       0.7509E-2     2.067   
   -8.460       0.1027E-1     2.156       0.7520E-2     2.068   
   -8.450       0.1029E-1     2.157       0.7530E-2     2.068   
   -8.440       0.1031E-1     2.159       0.7541E-2     2.069   
   -8.430       0.1033E-1     2.160       0.7552E-2     2.070   
   -8.420       0.1035E-1     2.161       0.7563E-2     2.071   
   -8.410       0.1037E-1     2.162       0.7573E-2     2.071   
   -8.400       0.1039E-1     2.163       0.7584E-2     2.072   
   -8.390       0.1040E-1     2.164       0.7595E-2     2.073   
   -8.380       0.1042E-1     2.165       0.7606E-2     2.074   
   -8.370       0.1044E-1     2.166       0.7617E-2     2.074   
   -8.360       0.1046E-1     2.167       0.7628E-2     2.075   
   -8.350       0.1048E-1     2.168       0.7638E-2     2.076   
   -8.340       0.1050E-1     2.169       0.7649E-2     2.077   
   -8.330       0.1052E-1     2.170       0.7660E-2     2.077   
   -8.320       0.1054E-1     2.171       0.7671E-2     2.078   
   -8.310       0.1055E-1     2.172       0.7682E-2     2.079   
   -8.300       0.1057E-1     2.173       0.7693E-2     2.080   
   -8.290       0.1059E-1     2.174       0.7704E-2     2.081   
   -8.280       0.1061E-1     2.175       0.7715E-2     2.081   
   -8.270       0.1063E-1     2.176       0.7727E-2     2.082   
   -8.260       0.1065E-1     2.177       0.7738E-2     2.083   
   -8.250       0.1067E-1     2.178       0.7749E-2     2.084   
   -8.240       0.1069E-1     2.180       0.7760E-2     2.084   
   -8.230       0.1071E-1     2.181       0.7771E-2     2.085   
   -8.220       0.1073E-1     2.182       0.7782E-2     2.086   
   -8.210       0.1075E-1     2.183       0.7794E-2     2.087   
   -8.200       0.1077E-1     2.184       0.7805E-2     2.087   
   -8.190       0.1079E-1     2.185       0.7816E-2     2.088   
   -8.180       0.1081E-1     2.186       0.7828E-2     2.089   
   -8.170       0.1083E-1     2.187       0.7839E-2     2.090   
   -8.160       0.1085E-1     2.188       0.7850E-2     2.091   
   -8.150       0.1086E-1     2.189       0.7862E-2     2.091   
   -8.140       0.1088E-1     2.190       0.7873E-2     2.092   
   -8.130       0.1090E-1     2.191       0.7885E-2     2.093   
   -8.120       0.1092E-1     2.192       0.7896E-2     2.094   
   -8.110       0.1094E-1     2.194       0.7907E-2     2.095   
   -8.100       0.1096E-1     2.195       0.7919E-2     2.095   
   -8.090       0.1098E-1     2.196       0.7931E-2     2.096   
   -8.080       0.1101E-1     2.197       0.7942E-2     2.097   
   -8.070       0.1103E-1     2.198       0.7954E-2     2.098   
   -8.060       0.1105E-1     2.199       0.7965E-2     2.099   
   -8.050       0.1107E-1     2.200       0.7977E-2     2.099   
   -8.040       0.1109E-1     2.201       0.7989E-2     2.100   
   -8.030       0.1111E-1     2.202       0.8000E-2     2.101   
   -8.020       0.1113E-1     2.204       0.8012E-2     2.102   
     -8.0100       0.0111       2.2046       0.0080       2.1025
     -8.0000       0.0112       2.2057       0.0080       2.1033
     -7.9900       0.0112       2.2069       0.0080       2.1041
     -7.9800       0.0112       2.2080       0.0081       2.1049
     -7.9700       0.0112       2.2091       0.0081       2.1057
     -7.9600       0.0113       2.2102       0.0081       2.1065
     -7.9500       0.0113       2.2113       0.0081       2.1074
     -7.9400       0.0113       2.2125       0.0081       2.1082
     -7.9300       0.0113       2.2136       0.0081       2.1090
     -7.9200       0.0113       2.2147       0.0081       2.1098
     -7.9100       0.0114       2.2159       0.0081       2.1106
     -7.9000       0.0114       2.2170       0.0082       2.1114
     -7.8900       0.0114       2.2181       0.0082       2.1122
     -7.8800       0.0114       2.2193       0.0082       2.1131
     -7.8700       0.0114       2.2204       0.0082       2.1139
     -7.8600       0.0115       2.2216       0.0082       2.1147
     -7.8500       0.0115       2.2227       0.0082       2.1155
     -7.8400       0.0115       2.2239       0.0082       2.1163
     -7.8300       0.0115       2.2250       0.0082       2.1172
     -7.8200       0.0116       2.2262       0.0083       2.1180
     -7.8100       0.0116       2.2273       0.0083       2.1188
     -7.8000       0.0116       2.2285       0.0083       2.1196
     -7.7900       0.0116       2.2297       0.0083       2.1205
     -7.7800       0.0116       2.2308       0.0083       2.1213
     -7.7700       0.0117       2.2320       0.0083       2.1221
     -7.7600       0.0117       2.2331       0.0083       2.1230
     -7.7500       0.0117       2.2343       0.0083       2.1238
     -7.7400       0.0117       2.2355       0.0084       2.1246
     -7.7300       0.0117       2.2367       0.0084       2.1255
     -7.7200       0.0118       2.2378       0.0084       2.1263
     -7.7100       0.0118       2.2390       0.0084       2.1271
     -7.7000       0.0118       2.2402       0.0084       2.1280
     -7.6900       0.0118       2.2414       0.0084       2.1288
     -7.6800       0.0119       2.2426       0.0084       2.1297
     -7.6700       0.0119       2.2437       0.0084       2.1305
     -7.6600       0.0119       2.2449       0.0085       2.1313
     -7.6500       0.0119       2.2461       0.0085       2.1322
     -7.6400       0.0120       2.2473       0.0085       2.1330
     -7.6300       0.0120       2.2485       0.0085       2.1339
     -7.6200       0.0120       2.2497       0.0085       2.1347
     -7.6100       0.0120       2.2509       0.0085       2.1356
     -7.6000       0.0120       2.2521       0.0085       2.1364
     -7.5900       0.0121       2.2533       0.0085       2.1373
     -7.5800       0.0121       2.2545       0.0086       2.1381
     -7.5700       0.0121       2.2557       0.0086       2.1390
     -7.5600       0.0121       2.2570       0.0086       2.1399
     -7.5500       0.0122       2.2582       0.0086       2.1407
     -7.5400       0.0122       2.2594       0.0086       2.1416
     -7.5300       0.0122       2.2606       0.0086       2.1424
     -7.5200       0.0122       2.2618       0.0086       2.1433
     -7.5100       0.0123       2.2631       0.0086       2.1442
     -7.5000       0.0123       2.2643       0.0087       2.1450
     -7.4900       0.0123       2.2655       0.0087       2.1459
     -7.4800       0.0123       2.2667       0.0087       2.1468
     -7.4700       0.0124       2.2680       0.0087       2.1476
     -7.4600       0.0124       2.2692       0.0087       2.1485
     -7.4500       0.0124       2.2705       0.0087       2.1494
     -7.4400       0.0124       2.2717       0.0087       2.1502
     -7.4300       0.0124       2.2729       0.0088       2.1511
     -7.4200       0.0125       2.2742       0.0088       2.1520
     -7.4100       0.0125       2.2754       0.0088       2.1529
     -7.4000       0.0125       2.2767       0.0088       2.1538
     -7.3900       0.0125       2.2779       0.0088       2.1546
     -7.3800       0.0126       2.2792       0.0088       2.1555
     -7.3700       0.0126       2.2804       0.0088       2.1564
     -7.3600       0.0126       2.2817       0.0088       2.1573
     -7.3500       0.0126       2.2830       0.0089       2.1582
     -7.3400       0.0127       2.2842       0.0089       2.1591
     -7.3300       0.0127       2.2855       0.0089       2.1599
     -7.3200       0.0127       2.2868       0.0089       2.1608
     -7.3100       0.0127       2.2880       0.0089       2.1617
     -7.3000       0.0128       2.2893       0.0089       2.1626
     -7.2900       0.0128       2.2906       0.0089       2.1635
     -7.2800       0.0128       2.2919       0.0090       2.1644
     -7.2700       0.0128       2.2932       0.0090       2.1653
     -7.2600       0.0129       2.2945       0.0090       2.1662
     -7.2500       0.0129       2.2957       0.0090       2.1671
     -7.2400       0.0129       2.2970       0.0090       2.1680
     -7.2300       0.0130       2.2983       0.0090       2.1689
     -7.2200       0.0130       2.2996       0.0090       2.1698
     -7.2100       0.0130       2.3009       0.0091       2.1707
     -7.2000       0.0130       2.3022       0.0091       2.1716
     -7.1900       0.0131       2.3035       0.0091       2.1725
     -7.1800       0.0131       2.3048       0.0091       2.1734
     -7.1700       0.0131       2.3061       0.0091       2.1743
     -7.1600       0.0131       2.3075       0.0091       2.1752
     -7.1500       0.0132       2.3088       0.0091       2.1762
     -7.1400       0.0132       2.3101       0.0092       2.1771
     -7.1300       0.0132       2.3114       0.0092       2.1780
     -7.1200       0.0132       2.3127       0.0092       2.1789
