#                                                           
# ooooo   oooo ..     ooo        ooo ooooooooo.    .oooo.   
#  `88.   .8" .88.    `88.       .88 `88"   `Y8b  dP"  `Yb  
#   `88. .8" .8"88.    888b     d"88  88     888 88      88 
#    `88.8" .8" `88.   8 Y88. .P  88  88oooo888" 88      88 
#     `88" .88ooo888.  8  `888"   88  88    `88b 88      88 
#      88 .8"     `88. 8    Y     88  88    .88P `8b    d8" 
#     o88o88o      888o8          88 o88bood8P"   `Ybod8P"  
#                                                           
#                                                           
#        Version 4.4.0 Revision 16741 Hash d917b3d70        
#               Branch is devel-BSE-finite-q                
#                   MPI+SLK+OpenMP Build                    
#                 http://www.yambo-code.org                 
#
# Absorption @ Q(4) [iku] : 0.500000  0.250000  0.500000
#
#
# - Energies      are Teter 93(XC)
# - Wavefunctions are Teter 93(XC)
#
# - The Green`s function is Resonant -
#
#
#    E/ev[1]      EPS-Im[2]    EPS-Re[3]    EPSo-Im[4]   EPSo-Re[5]
#
   -10.00       0.1572E-4     1.002       0.6101E-3     1.105   
   -9.990       0.1574E-4     1.002       0.6108E-3     1.105   
   -9.980       0.1577E-4     1.002       0.6116E-3     1.105   
   -9.970       0.1579E-4     1.002       0.6123E-3     1.105   
   -9.960       0.1582E-4     1.002       0.6130E-3     1.105   
   -9.950       0.1584E-4     1.002       0.6138E-3     1.105   
   -9.940       0.1587E-4     1.002       0.6145E-3     1.105   
   -9.930       0.1589E-4     1.002       0.6152E-3     1.105   
   -9.920       0.1592E-4     1.002       0.6159E-3     1.105   
   -9.910       0.1594E-4     1.002       0.6167E-3     1.105   
   -9.900       0.1597E-4     1.002       0.6174E-3     1.105   
   -9.890       0.1599E-4     1.002       0.6182E-3     1.105   
   -9.880       0.1602E-4     1.002       0.6189E-3     1.105   
   -9.870       0.1604E-4     1.002       0.6196E-3     1.105   
   -9.860       0.1607E-4     1.002       0.6204E-3     1.105   
   -9.850       0.1609E-4     1.002       0.6211E-3     1.106   
   -9.840       0.1612E-4     1.002       0.6219E-3     1.106   
   -9.830       0.1614E-4     1.002       0.6226E-3     1.106   
   -9.820       0.1617E-4     1.002       0.6234E-3     1.106   
   -9.810       0.1620E-4     1.002       0.6241E-3     1.106   
   -9.800       0.1622E-4     1.002       0.6249E-3     1.106   
   -9.790       0.1625E-4     1.002       0.6256E-3     1.106   
   -9.780       0.1627E-4     1.002       0.6264E-3     1.106   
   -9.770       0.1630E-4     1.002       0.6271E-3     1.106   
   -9.760       0.1633E-4     1.002       0.6279E-3     1.106   
   -9.750       0.1635E-4     1.002       0.6286E-3     1.106   
   -9.740       0.1638E-4     1.002       0.6294E-3     1.106   
   -9.730       0.1640E-4     1.002       0.6301E-3     1.106   
   -9.720       0.1643E-4     1.002       0.6309E-3     1.106   
   -9.710       0.1646E-4     1.002       0.6317E-3     1.106   
   -9.700       0.1648E-4     1.002       0.6324E-3     1.106   
   -9.690       0.1651E-4     1.002       0.6332E-3     1.107   
   -9.680       0.1654E-4     1.002       0.6340E-3     1.107   
   -9.670       0.1656E-4     1.002       0.6347E-3     1.107   
   -9.660       0.1659E-4     1.002       0.6355E-3     1.107   
   -9.650       0.1662E-4     1.002       0.6363E-3     1.107   
   -9.640       0.1664E-4     1.002       0.6370E-3     1.107   
   -9.630       0.1667E-4     1.002       0.6378E-3     1.107   
   -9.620       0.1670E-4     1.002       0.6386E-3     1.107   
   -9.610       0.1672E-4     1.002       0.6394E-3     1.107   
   -9.600       0.1675E-4     1.002       0.6401E-3     1.107   
   -9.590       0.1678E-4     1.002       0.6409E-3     1.107   
   -9.580       0.1681E-4     1.002       0.6417E-3     1.107   
   -9.570       0.1683E-4     1.002       0.6425E-3     1.107   
   -9.560       0.1686E-4     1.002       0.6433E-3     1.107   
   -9.550       0.1689E-4     1.002       0.6441E-3     1.107   
   -9.540       0.1692E-4     1.002       0.6448E-3     1.107   
   -9.530       0.1694E-4     1.002       0.6456E-3     1.108   
   -9.520       0.1697E-4     1.002       0.6464E-3     1.108   
   -9.510       0.1700E-4     1.002       0.6472E-3     1.108   
   -9.500       0.1703E-4     1.002       0.6480E-3     1.108   
   -9.490       0.1705E-4     1.002       0.6488E-3     1.108   
   -9.480       0.1708E-4     1.002       0.6496E-3     1.108   
   -9.470       0.1711E-4     1.002       0.6504E-3     1.108   
   -9.460       0.1714E-4     1.002       0.6512E-3     1.108   
   -9.450       0.1717E-4     1.002       0.6520E-3     1.108   
   -9.440       0.1720E-4     1.002       0.6528E-3     1.108   
   -9.430       0.1722E-4     1.002       0.6536E-3     1.108   
   -9.420       0.1725E-4     1.002       0.6544E-3     1.108   
   -9.410       0.1728E-4     1.002       0.6552E-3     1.108   
   -9.400       0.1731E-4     1.002       0.6560E-3     1.108   
   -9.390       0.1734E-4     1.002       0.6568E-3     1.108   
   -9.380       0.1737E-4     1.002       0.6576E-3     1.109   
   -9.370       0.1739E-4     1.002       0.6584E-3     1.109   
   -9.360       0.1742E-4     1.002       0.6593E-3     1.109   
   -9.350       0.1745E-4     1.002       0.6601E-3     1.109   
   -9.340       0.1748E-4     1.002       0.6609E-3     1.109   
   -9.330       0.1751E-4     1.002       0.6617E-3     1.109   
   -9.320       0.1754E-4     1.002       0.6625E-3     1.109   
   -9.310       0.1757E-4     1.002       0.6633E-3     1.109   
   -9.300       0.1760E-4     1.002       0.6642E-3     1.109   
   -9.290       0.1763E-4     1.002       0.6650E-3     1.109   
   -9.280       0.1766E-4     1.002       0.6658E-3     1.109   
   -9.270       0.1769E-4     1.002       0.6666E-3     1.109   
   -9.260       0.1772E-4     1.002       0.6675E-3     1.109   
   -9.250       0.1774E-4     1.002       0.6683E-3     1.109   
   -9.240       0.1777E-4     1.002       0.6691E-3     1.109   
   -9.230       0.1780E-4     1.002       0.6700E-3     1.110   
   -9.220       0.1783E-4     1.002       0.6708E-3     1.110   
   -9.210       0.1786E-4     1.002       0.6716E-3     1.110   
   -9.200       0.1789E-4     1.002       0.6725E-3     1.110   
   -9.190       0.1792E-4     1.002       0.6733E-3     1.110   
   -9.180       0.1795E-4     1.002       0.6742E-3     1.110   
   -9.170       0.1798E-4     1.002       0.6750E-3     1.110   
   -9.160       0.1801E-4     1.002       0.6759E-3     1.110   
   -9.150       0.1804E-4     1.002       0.6767E-3     1.110   
   -9.140       0.1807E-4     1.002       0.6775E-3     1.110   
   -9.130       0.1811E-4     1.002       0.6784E-3     1.110   
   -9.120       0.1814E-4     1.002       0.6792E-3     1.110   
   -9.110       0.1817E-4     1.002       0.6801E-3     1.110   
   -9.100       0.1820E-4     1.002       0.6810E-3     1.110   
   -9.090       0.1823E-4     1.002       0.6818E-3     1.110   
   -9.080       0.1826E-4     1.002       0.6827E-3     1.111   
   -9.070       0.1829E-4     1.002       0.6835E-3     1.111   
   -9.060       0.1832E-4     1.002       0.6844E-3     1.111   
   -9.050       0.1835E-4     1.002       0.6853E-3     1.111   
   -9.040       0.1838E-4     1.002       0.6861E-3     1.111   
   -9.030       0.1841E-4     1.002       0.6870E-3     1.111   
   -9.020       0.1845E-4     1.002       0.6879E-3     1.111   
   -9.010       0.1848E-4     1.002       0.6887E-3     1.111   
   -9.000       0.1851E-4     1.002       0.6896E-3     1.111   
   -8.990       0.1854E-4     1.002       0.6905E-3     1.111   
   -8.980       0.1857E-4     1.002       0.6913E-3     1.111   
   -8.970       0.1860E-4     1.002       0.6922E-3     1.111   
   -8.960       0.1864E-4     1.002       0.6931E-3     1.111   
   -8.950       0.1867E-4     1.002       0.6940E-3     1.111   
   -8.940       0.1870E-4     1.002       0.6949E-3     1.112   
   -8.930       0.1873E-4     1.002       0.6957E-3     1.112   
   -8.920       0.1876E-4     1.002       0.6966E-3     1.112   
   -8.910       0.1880E-4     1.002       0.6975E-3     1.112   
   -8.900       0.1883E-4     1.002       0.6984E-3     1.112   
   -8.890       0.1886E-4     1.002       0.6993E-3     1.112   
   -8.880       0.1889E-4     1.002       0.7002E-3     1.112   
   -8.870       0.1893E-4     1.002       0.7011E-3     1.112   
   -8.860       0.1896E-4     1.002       0.7020E-3     1.112   
   -8.850       0.1899E-4     1.002       0.7029E-3     1.112   
   -8.840       0.1902E-4     1.002       0.7038E-3     1.112   
   -8.830       0.1906E-4     1.002       0.7047E-3     1.112   
   -8.820       0.1909E-4     1.002       0.7056E-3     1.112   
   -8.810       0.1912E-4     1.002       0.7065E-3     1.112   
   -8.800       0.1916E-4     1.002       0.7074E-3     1.112   
   -8.790       0.1919E-4     1.002       0.7083E-3     1.113   
   -8.780       0.1922E-4     1.002       0.7092E-3     1.113   
   -8.770       0.1926E-4     1.002       0.7101E-3     1.113   
   -8.760       0.1929E-4     1.002       0.7110E-3     1.113   
   -8.750       0.1932E-4     1.002       0.7119E-3     1.113   
   -8.740       0.1936E-4     1.002       0.7129E-3     1.113   
   -8.730       0.1939E-4     1.002       0.7138E-3     1.113   
   -8.720       0.1942E-4     1.002       0.7147E-3     1.113   
   -8.710       0.1946E-4     1.002       0.7156E-3     1.113   
   -8.700       0.1949E-4     1.002       0.7165E-3     1.113   
   -8.690       0.1953E-4     1.002       0.7175E-3     1.113   
   -8.680       0.1956E-4     1.002       0.7184E-3     1.113   
   -8.670       0.1960E-4     1.002       0.7193E-3     1.113   
   -8.660       0.1963E-4     1.002       0.7202E-3     1.113   
   -8.650       0.1966E-4     1.002       0.7212E-3     1.114   
   -8.640       0.1970E-4     1.002       0.7221E-3     1.114   
   -8.630       0.1973E-4     1.002       0.7231E-3     1.114   
   -8.620       0.1977E-4     1.002       0.7240E-3     1.114   
   -8.610       0.1980E-4     1.002       0.7249E-3     1.114   
   -8.600       0.1984E-4     1.002       0.7259E-3     1.114   
   -8.590       0.1987E-4     1.002       0.7268E-3     1.114   
   -8.580       0.1991E-4     1.002       0.7278E-3     1.114   
   -8.570       0.1994E-4     1.002       0.7287E-3     1.114   
   -8.560       0.1998E-4     1.002       0.7297E-3     1.114   
   -8.550       0.2001E-4     1.002       0.7306E-3     1.114   
   -8.540       0.2005E-4     1.002       0.7316E-3     1.114   
   -8.530       0.2009E-4     1.002       0.7325E-3     1.114   
   -8.520       0.2012E-4     1.002       0.7335E-3     1.115   
   -8.510       0.2016E-4     1.002       0.7344E-3     1.115   
   -8.500       0.2019E-4     1.002       0.7354E-3     1.115   
   -8.490       0.2023E-4     1.002       0.7364E-3     1.115   
   -8.480       0.2027E-4     1.002       0.7373E-3     1.115   
   -8.470       0.2030E-4     1.002       0.7383E-3     1.115   
   -8.460       0.2034E-4     1.002       0.7393E-3     1.115   
   -8.450       0.2037E-4     1.002       0.7402E-3     1.115   
   -8.440       0.2041E-4     1.002       0.7412E-3     1.115   
   -8.430       0.2045E-4     1.002       0.7422E-3     1.115   
   -8.420       0.2048E-4     1.002       0.7432E-3     1.115   
   -8.410       0.2052E-4     1.002       0.7441E-3     1.115   
   -8.400       0.2056E-4     1.002       0.7451E-3     1.115   
   -8.390       0.2059E-4     1.002       0.7461E-3     1.115   
   -8.380       0.2063E-4     1.002       0.7471E-3     1.116   
   -8.370       0.2067E-4     1.002       0.7481E-3     1.116   
   -8.360       0.2071E-4     1.002       0.7491E-3     1.116   
   -8.350       0.2074E-4     1.002       0.7501E-3     1.116   
   -8.340       0.2078E-4     1.002       0.7510E-3     1.116   
   -8.330       0.2082E-4     1.002       0.7520E-3     1.116   
   -8.320       0.2086E-4     1.002       0.7530E-3     1.116   
   -8.310       0.2089E-4     1.002       0.7540E-3     1.116   
   -8.300       0.2093E-4     1.002       0.7550E-3     1.116   
   -8.290       0.2097E-4     1.002       0.7560E-3     1.116   
   -8.280       0.2101E-4     1.002       0.7570E-3     1.116   
   -8.270       0.2105E-4     1.002       0.7580E-3     1.116   
   -8.260       0.2108E-4     1.002       0.7591E-3     1.116   
   -8.250       0.2112E-4     1.002       0.7601E-3     1.117   
   -8.240       0.2116E-4     1.002       0.7611E-3     1.117   
   -8.230       0.2120E-4     1.002       0.7621E-3     1.117   
   -8.220       0.2124E-4     1.002       0.7631E-3     1.117   
   -8.210       0.2128E-4     1.002       0.7641E-3     1.117   
   -8.200       0.2132E-4     1.002       0.7652E-3     1.117   
   -8.190       0.2136E-4     1.002       0.7662E-3     1.117   
   -8.180       0.2139E-4     1.002       0.7672E-3     1.117   
   -8.170       0.2143E-4     1.002       0.7682E-3     1.117   
   -8.160       0.2147E-4     1.002       0.7693E-3     1.117   
   -8.150       0.2151E-4     1.002       0.7703E-3     1.117   
   -8.140       0.2155E-4     1.002       0.7713E-3     1.117   
   -8.130       0.2159E-4     1.002       0.7724E-3     1.117   
   -8.120       0.2163E-4     1.002       0.7734E-3     1.118   
   -8.110       0.2167E-4     1.002       0.7744E-3     1.118   
   -8.100       0.2171E-4     1.002       0.7755E-3     1.118   
   -8.090       0.2175E-4     1.002       0.7765E-3     1.118   
   -8.080       0.2179E-4     1.002       0.7776E-3     1.118   
   -8.070       0.2183E-4     1.002       0.7786E-3     1.118   
   -8.060       0.2187E-4     1.002       0.7797E-3     1.118   
   -8.050       0.2191E-4     1.002       0.7807E-3     1.118   
   -8.040       0.2195E-4     1.002       0.7818E-3     1.118   
   -8.030       0.2199E-4     1.002       0.7828E-3     1.118   
   -8.020       0.2204E-4     1.002       0.7839E-3     1.118   
   -8.010       0.2208E-4     1.002       0.7850E-3     1.118   
   -8.000       0.2212E-4     1.002       0.7860E-3     1.118   
   -7.990       0.2216E-4     1.002       0.7871E-3     1.119   
   -7.980       0.2220E-4     1.002       0.7882E-3     1.119   
   -7.970       0.2224E-4     1.002       0.7892E-3     1.119   
   -7.960       0.2228E-4     1.002       0.7903E-3     1.119   
   -7.950       0.2233E-4     1.002       0.7914E-3     1.119   
   -7.940       0.2237E-4     1.002       0.7925E-3     1.119   
   -7.930       0.2241E-4     1.002       0.7935E-3     1.119   
   -7.920       0.2245E-4     1.002       0.7946E-3     1.119   
   -7.910       0.2249E-4     1.002       0.7957E-3     1.119   
   -7.900       0.2254E-4     1.002       0.7968E-3     1.119   
   -7.890       0.2258E-4     1.002       0.7979E-3     1.119   
   -7.880       0.2262E-4     1.002       0.7990E-3     1.119   
   -7.870       0.2266E-4     1.002       0.8001E-3     1.119   
   -7.860       0.2271E-4     1.002       0.8011E-3     1.120   
   -7.850       0.2275E-4     1.002       0.8022E-3     1.120   
   -7.840       0.2279E-4     1.002       0.8033E-3     1.120   
   -7.830       0.2284E-4     1.002       0.8044E-3     1.120   
   -7.820       0.2288E-4     1.002       0.8056E-3     1.120   
   -7.810       0.2292E-4     1.002       0.8067E-3     1.120   
   -7.800       0.2297E-4     1.002       0.8078E-3     1.120   
   -7.790       0.2301E-4     1.002       0.8089E-3     1.120   
   -7.780       0.2305E-4     1.002       0.8100E-3     1.120   
   -7.770       0.2310E-4     1.002       0.8111E-3     1.120   
   -7.760       0.2314E-4     1.002       0.8122E-3     1.120   
   -7.750       0.2319E-4     1.002       0.8134E-3     1.120   
   -7.740       0.2323E-4     1.002       0.8145E-3     1.121   
   -7.730       0.2327E-4     1.002       0.8156E-3     1.121   
   -7.720       0.2332E-4     1.002       0.8167E-3     1.121   
   -7.710       0.2336E-4     1.002       0.8179E-3     1.121   
   -7.700       0.2341E-4     1.002       0.8190E-3     1.121   
   -7.690       0.2345E-4     1.002       0.8201E-3     1.121   
   -7.680       0.2350E-4     1.002       0.8213E-3     1.121   
   -7.670       0.2354E-4     1.002       0.8224E-3     1.121   
   -7.660       0.2359E-4     1.002       0.8235E-3     1.121   
   -7.650       0.2363E-4     1.002       0.8247E-3     1.121   
   -7.640       0.2368E-4     1.002       0.8258E-3     1.121   
   -7.630       0.2373E-4     1.002       0.8270E-3     1.121   
   -7.620       0.2377E-4     1.002       0.8281E-3     1.122   
   -7.610       0.2382E-4     1.002       0.8293E-3     1.122   
   -7.600       0.2386E-4     1.002       0.8305E-3     1.122   
   -7.590       0.2391E-4     1.002       0.8316E-3     1.122   
   -7.580       0.2396E-4     1.002       0.8328E-3     1.122   
   -7.570       0.2400E-4     1.002       0.8339E-3     1.122   
   -7.560       0.2405E-4     1.002       0.8351E-3     1.122   
   -7.550       0.2410E-4     1.002       0.8363E-3     1.122   
   -7.540       0.2414E-4     1.002       0.8374E-3     1.122   
   -7.530       0.2419E-4     1.002       0.8386E-3     1.122   
   -7.520       0.2424E-4     1.002       0.8398E-3     1.122   
   -7.510       0.2428E-4     1.002       0.8410E-3     1.122   
   -7.500       0.2433E-4     1.002       0.8422E-3     1.123   
   -7.490       0.2438E-4     1.002       0.8433E-3     1.123   
   -7.480       0.2443E-4     1.002       0.8445E-3     1.123   
   -7.470       0.2447E-4     1.002       0.8457E-3     1.123   
   -7.460       0.2452E-4     1.002       0.8469E-3     1.123   
   -7.450       0.2457E-4     1.003       0.8481E-3     1.123   
   -7.440       0.2462E-4     1.003       0.8493E-3     1.123   
   -7.430       0.2467E-4     1.003       0.8505E-3     1.123   
   -7.420       0.2472E-4     1.003       0.8517E-3     1.123   
   -7.410       0.2477E-4     1.003       0.8529E-3     1.123   
   -7.400       0.2481E-4     1.003       0.8541E-3     1.123   
   -7.390       0.2486E-4     1.003       0.8553E-3     1.123   
   -7.380       0.2491E-4     1.003       0.8566E-3     1.124   
   -7.370       0.2496E-4     1.003       0.8578E-3     1.124   
   -7.360       0.2501E-4     1.003       0.8590E-3     1.124   
   -7.350       0.2506E-4     1.003       0.8602E-3     1.124   
   -7.340       0.2511E-4     1.003       0.8614E-3     1.124   
   -7.330       0.2516E-4     1.003       0.8627E-3     1.124   
   -7.320       0.2521E-4     1.003       0.8639E-3     1.124   
   -7.310       0.2526E-4     1.003       0.8651E-3     1.124   
   -7.300       0.2531E-4     1.003       0.8664E-3     1.124   
   -7.290       0.2536E-4     1.003       0.8676E-3     1.124   
   -7.280       0.2541E-4     1.003       0.8688E-3     1.124   
   -7.270       0.2546E-4     1.003       0.8701E-3     1.124   
   -7.260       0.2551E-4     1.003       0.8713E-3     1.125   
   -7.250       0.2557E-4     1.003       0.8726E-3     1.125   
   -7.240       0.2562E-4     1.003       0.8738E-3     1.125   
   -7.230       0.2567E-4     1.003       0.8751E-3     1.125   
   -7.220       0.2572E-4     1.003       0.8763E-3     1.125   
   -7.210       0.2577E-4     1.003       0.8776E-3     1.125   
   -7.200       0.2582E-4     1.003       0.8788E-3     1.125   
   -7.190       0.2588E-4     1.003       0.8801E-3     1.125   
   -7.180       0.2593E-4     1.003       0.8814E-3     1.125   
   -7.170       0.2598E-4     1.003       0.8827E-3     1.125   
   -7.160       0.2603E-4     1.003       0.8839E-3     1.125   
   -7.150       0.2609E-4     1.003       0.8852E-3     1.126   
   -7.140       0.2614E-4     1.003       0.8865E-3     1.126   
   -7.130       0.2619E-4     1.003       0.8878E-3     1.126   
   -7.120       0.2624E-4     1.003       0.8890E-3     1.126   
   -7.110       0.2630E-4     1.003       0.8903E-3     1.126   
