#                                                                     
# :   :::   :::     ::::    ::::  :::::::::   ::::::::                
# :+:   :+: :+: :+:   +:+:+: :+:+:+ :+:    :+: :+:    :+              
#  +:+ +:+ +:+   +:+  +:+ +:+:+ +:+ +:+    +:+ +:+    +:+             
#   +#++: +#++:++#++: +#+  +:+  +#+ +#++:++#+  +#+    +:+             
#    +#+  +#+     +#+ +#+       +#+ +#+    +#+ +#+    +#+             
#    #+#  #+#     #+# #+#       #+# #+#    #+# #+#    #+#             
#    ###  ###     ### ###       ### #########   ########              
#                                                                     
#                                                                     
# Version 5.2.0 Revision 22368 Hash (prev commit) b42959ab6a          
#                    Branch is develop                                
#         MPI+OpenMP+SLK+SLEPC+HDF5_MPI_IO Build                      
#                http://www.yambo-code.org                            
#
# Polarizability  ( -<<X>> ) @ Q(1):  0.999999975E-5   0.00000000      0.00000000    [q->0 direction]
#
# Polarizability units: volume
#
# [GEN] GF Energies                               : Perdew, Burke & Ernzerhof(X)+Perdew, Burke & Ernzerhof(C)
# [GEN] Green`s Function                          : Retarded
#
# [GEN] Gauge                                     : Length
# [GEN] [r,Vnl] included                          : yes
#
# DIP band range                                  :   1  20
# DIP band range limits                           :  20   1
# DIP e/h energy range                            :  -1.00000000     -1.00000000    [eV]
# RL vectors in the sum                           :  2637
# [r,Vnl] included                                : yes
# Bands ordered                                   : no
# Direct v evaluation                             : no
# Approach used                                   : G-space v
# Dipoles computed                                : R V P
# Wavefunctions                                   : Perdew, Burke & Ernzerhof(X)+Perdew, Burke & Ernzerhof(C)
#
#
#    E[1] [eV]          Im(alpha)          Re(alpha)
#
        0.000000           0.000000           57.39331
        0.010000           0.002143           57.39341
        0.020000           0.004286           57.39373
        0.030000           0.006429           57.39427
        0.040000           0.008572           57.39502
        0.050000           0.010716           57.39599
        0.060000           0.012860           57.39716
        0.070000           0.015004           57.39854
        0.080000           0.017149           57.40016
        0.090000           0.019294           57.40197
        0.100000           0.021440           57.40401
        0.110000           0.023586           57.40626
        0.120000           0.025734           57.40872
        0.130000           0.027882           57.41140
        0.140000           0.030030           57.41430
        0.150000           0.032180           57.41741
        0.160000           0.034331           57.42073
        0.170000           0.036483           57.42426
        0.180000           0.038636           57.42799
        0.190000           0.040790           57.43200
        0.200000           0.042945           57.43616
        0.210000           0.045102           57.44056
        0.220000           0.047260           57.44518
        0.230000           0.049420           57.45002
        0.240000           0.051581           57.45504
        0.250000           0.053743           57.46032
        0.260000           0.055907           57.46579
        0.270000           0.058073           57.47147
        0.280000           0.060241           57.47739
        0.290000           0.062411           57.48352
        0.300000           0.064582           57.48986
        0.310000           0.066756           57.49643
        0.320000           0.068931           57.50319
        0.330000           0.071109           57.51020
        0.340000           0.073289           57.51742
        0.350000           0.075471           57.52483
        0.360000           0.077656           57.53251
        0.370000           0.079843           57.54036
        0.380000           0.082032           57.54845
        0.390000           0.084224           57.55674
        0.400000           0.086418           57.56527
        0.410000           0.088616           57.57401
        0.420000           0.090815           57.58297
        0.430000           0.093018           57.59215
        0.440000           0.095224           57.60154
        0.450000           0.097432           57.61118
        0.460000           0.099644           57.62102
        0.470000           0.101859           57.63108
        0.480000           0.104077           57.64137
        0.490000           0.106298           57.65187
        0.500000           0.108522           57.66261
        0.510000           0.110750           57.67354
        0.520000           0.112982           57.68473
        0.530000           0.115216           57.69614
        0.540000           0.117455           57.70775
        0.550000           0.119697           57.71959
        0.560000           0.121943           57.73167
        0.570000           0.124193           57.74396
        0.580000           0.126447           57.75648
        0.590000           0.128704           57.76922
        0.600000           0.130966           57.78221
        0.610000           0.133232           57.79537
        0.620000           0.135502           57.80881
        0.630000           0.137776           57.82246
        0.640000           0.140055           57.83633
        0.650000           0.142338           57.85043
        0.660000           0.144626           57.86477
        0.670000           0.146918           57.87933
        0.680000           0.149215           57.89412
        0.690000           0.151517           57.90916
        0.700000           0.153823           57.92440
        0.710000           0.156135           57.93988
        0.720000           0.158451           57.95560
        0.730000           0.160773           57.97152
        0.740000           0.163100           57.98771
        0.750000           0.165431           58.00411
        0.760000           0.167769           58.02077
        0.770000           0.170111           58.03763
        0.780000           0.172460           58.05474
        0.790000           0.174813           58.07209
        0.800000           0.177173           58.08966
        0.810000           0.179538           58.10749
        0.820000           0.181909           58.12554
        0.830000           0.184286           58.14384
        0.840000           0.186669           58.16236
        0.850000           0.189058           58.18112
        0.860000           0.191453           58.20012
        0.870000           0.193855           58.21936
        0.880000           0.196263           58.23885
        0.890000           0.198677           58.25858
        0.900000           0.201098           58.27855
        0.910000           0.203525           58.29876
        0.920000           0.205959           58.31921
        0.930000           0.208400           58.33990
        0.940000           0.210848           58.36084
        0.950000           0.213303           58.38204
        0.960000           0.215765           58.40346
        0.970000           0.218234           58.42514
        0.980000           0.220710           58.44706
        0.990000           0.223194           58.46924
        1.000000           0.225686           58.49164
        1.010000           0.228184           58.51431
        1.020000           0.230691           58.53722
        1.030000           0.233205           58.56040
        1.040000           0.235728           58.58383
        1.050000           0.238258           58.60749
        1.060000           0.240796           58.63141
        1.070000           0.243342           58.65559
        1.080000           0.245897           58.68003
        1.090000           0.248460           58.70473
        1.100000           0.251032           58.72969
        1.110000           0.253612           58.75487
        1.120000           0.256201           58.78033
        1.130000           0.258799           58.80604
        1.140000           0.261405           58.83203
        1.150000           0.264021           58.85827
        1.160000           0.266646           58.88480
        1.170000           0.269280           58.91155
        1.180000           0.271923           58.93856
        1.190000           0.274576           58.96588
        1.200000           0.277239           58.99343
        1.210000           0.279911           59.02126
        1.220000           0.282593           59.04934
        1.230000           0.285285           59.07770
        1.240000           0.287987           59.10633
        1.250000           0.290699           59.13523
        1.260000           0.293422           59.16441
        1.270000           0.296155           59.19384
        1.280000           0.298898           59.22355
        1.290000           0.301652           59.25355
        1.300000           0.304417           59.28381
        1.310000           0.307193           59.31437
        1.320000           0.309980           59.34520
        1.330000           0.312778           59.37629
        1.340000           0.315587           59.40767
        1.350000           0.318408           59.43933
        1.360000           0.321241           59.47126
        1.370000           0.324085           59.50349
        1.380000           0.326941           59.53602
        1.390000           0.329809           59.56881
        1.400000           0.332689           59.60189
        1.410000           0.335581           59.63525
        1.420000           0.338486           59.66892
        1.430000           0.341403           59.70288
        1.440000           0.344333           59.73712
        1.450000           0.347276           59.77166
        1.460000           0.350232           59.80651
        1.470000           0.353201           59.84163
        1.480000           0.356183           59.87704
        1.490000           0.359178           59.91276
        1.500000           0.362188           59.94878
        1.510000           0.365210           59.98510
        1.520000           0.368247           60.02174
        1.530000           0.371298           60.05866
        1.540000           0.374363           60.09589
        1.550000           0.377442           60.13344
        1.560000           0.380536           60.17129
        1.570000           0.383645           60.20947
        1.580000           0.386768           60.24791
        1.590000           0.389907           60.28671
        1.600000           0.393060           60.32581
        1.610000           0.396229           60.36522
        1.620000           0.399414           60.40494
        1.630000           0.402614           60.44501
        1.640000           0.405830           60.48537
        1.650000           0.409062           60.52607
        1.660000           0.412311           60.56707
        1.670000           0.415576           60.60841
        1.680000           0.418857           60.65008
        1.690000           0.422156           60.69207
        1.700000           0.425471           60.73438
        1.710000           0.428804           60.77704
        1.720000           0.432153           60.82003
        1.730000           0.435521           60.86336
        1.740000           0.438906           60.90702
        1.750000           0.442309           60.95103
        1.760000           0.445731           60.99537
        1.770000           0.449170           61.04005
        1.780000           0.452629           61.08508
        1.790000           0.456106           61.13046
        1.800000           0.459602           61.17617
        1.810000           0.463118           61.22224
        1.820000           0.466652           61.26867
        1.830000           0.470207           61.31545
        1.840000           0.473782           61.36259
        1.850000           0.477376           61.41008
        1.860000           0.480991           61.45792
        1.870000           0.484626           61.50613
        1.880000           0.488283           61.55471
        1.890000           0.491960           61.60363
        1.900000           0.495659           61.65295
        1.910000           0.499379           61.70264
        1.920000           0.503121           61.75269
        1.930000           0.506885           61.80311
        1.940000           0.510671           61.85391
        1.950000           0.514480           61.90509
        1.960000           0.518311           61.95667
        1.970000           0.522166           62.00860
        1.980000           0.526044           62.06095
        1.990000           0.529945           62.11367
        2.000000           0.533871           62.16676
        2.010000           0.537820           62.22026
        2.020000           0.541794           62.27417
        2.030000           0.545793           62.32848
        2.040000           0.549816           62.38316
        2.050000           0.553865           62.43827
        2.060000           0.557940           62.49377
        2.070000           0.562040           62.54968
        2.080000           0.566167           62.60600
        2.090000           0.570320           62.66274
        2.100000           0.574500           62.71988
        2.110000           0.578706           62.77746
        2.120000           0.582941           62.83543
        2.130000           0.587203           62.89384
        2.140000           0.591493           62.95270
        2.150000           0.595812           63.01196
        2.160000           0.600159           63.07169
        2.170000           0.604535           63.13182
        2.180000           0.608941           63.19237
        2.190000           0.613376           63.25340
        2.200000           0.617842           63.31486
        2.210000           0.622338           63.37677
        2.220000           0.626865           63.43911
        2.230000           0.631423           63.50193
        2.240000           0.636013           63.56518
        2.250000           0.640635           63.62893
        2.260000           0.645289           63.69310
        2.270000           0.649976           63.75775
        2.280000           0.654696           63.82288
        2.290000           0.659450           63.88848
        2.300000           0.664237           63.95454
        2.310000           0.669059           64.02110
        2.320000           0.673916           64.08812
        2.330000           0.678808           64.15565
        2.340000           0.683736           64.22364
        2.350000           0.688699           64.29214
        2.360000           0.693699           64.36115
        2.370000           0.698737           64.43066
        2.380000           0.703811           64.50066
        2.390000           0.708924           64.57114
        2.400000           0.714075           64.64217
        2.410000           0.719265           64.71371
        2.420000           0.724494           64.78576
        2.430000           0.729763           64.85835
        2.440000           0.735073           64.93145
        2.450000           0.740423           65.00509
        2.460000           0.745815           65.07926
        2.470000           0.751248           65.15397
        2.480000           0.756724           65.22923
        2.490000           0.762243           65.30503
        2.500000           0.767806           65.38139
        2.510000           0.773412           65.45830
        2.520000           0.779064           65.53578
        2.530000           0.784760           65.61382
        2.540000           0.790502           65.69241
        2.550000           0.796291           65.77161
        2.560000           0.802127           65.85136
        2.570000           0.808010           65.93172
        2.580000           0.813941           66.01266
        2.590000           0.819921           66.09418
        2.600000           0.825951           66.17631
        2.610000           0.832031           66.25903
        2.620000           0.838162           66.34238
        2.630000           0.844345           66.42634
        2.640000           0.850579           66.51090
        2.650000           0.856866           66.59611
        2.660000           0.863208           66.68192
        2.670000           0.869603           66.76838
        2.680000           0.876053           66.85548
        2.690000           0.882559           66.94321
        2.700000           0.889122           67.03160
        2.710000           0.895742           67.12064
        2.720000           0.902420           67.21037
        2.730000           0.909157           67.30075
        2.740000           0.915954           67.39179
        2.750000           0.922811           67.48354
        2.760000           0.929730           67.57597
        2.770000           0.936710           67.66908
        2.780000           0.943754           67.76289
        2.790000           0.950862           67.85739
        2.800000           0.958034           67.95261
        2.810000           0.965273           68.04855
        2.820000           0.972578           68.14525
        2.830000           0.979950           68.24263
        2.840000           0.987391           68.34077
        2.850000           0.994902           68.43965
        2.860000           1.002483           68.53928
        2.870000           1.010136           68.63969
        2.880000           1.017862           68.74083
        2.890000           1.025661           68.84276
        2.900000           1.033535           68.94547
        2.910000           1.041484           69.04896
        2.920000           1.049511           69.15325
        2.930000           1.057615           69.25835
        2.940000           1.065799           69.36424
        2.950000           1.074063           69.47097
        2.960000           1.082408           69.57851
        2.970000           1.090836           69.68689
        2.980000           1.099348           69.79613
        2.990000           1.107946           69.90620
        3.000000           1.116630           70.01714
        3.010000           1.125401           70.12894
        3.020000           1.134262           70.24162
        3.030000           1.143214           70.35518
        3.040000           1.152257           70.46965
        3.050000           1.161393           70.58503
        3.060000           1.170625           70.70130
        3.070000           1.179953           70.81853
        3.080000           1.189378           70.93665
        3.090000           1.198902           71.05573
        3.100000           1.208527           71.17577
        3.110000           1.218254           71.29675
        3.120000           1.228085           71.41872
        3.130000           1.238022           71.54166
        3.140000           1.248066           71.66560
        3.150000           1.258219           71.79057
        3.160000           1.268483           71.91653
        3.170000           1.278859           72.04350
        3.180000           1.289350           72.17152
        3.190000           1.299957           72.30061
        3.200000           1.310681           72.43073
        3.210000           1.321526           72.56194
        3.220000           1.332492           72.69422
        3.230000           1.343583           72.82762
