#                                                                     
#   __   __     _        __  __       ____      U  ___  u             
#   \ \ / / U  /"\  U u |" \/ "| u U | __") u    \/"_ \/              
#    \ V /   \/ _ \/   \| |\/| |/   \|  _ \/     | | | |              
#   U_|"|_u  / ___ \    | |  | |     | |_) | .-,_| |_| |              
#     |_|   /_/   \_\   |_|  |_|     |____/   \_)-\___/               
# .-,//|(_   \\    >>  <<,-,,-.     _|| \\_        \\                 
#  \_) (__) (__)  (__)  (./  \.)   (__) (__)      (__)                
#                                                                     
#                                                                     
# Version 5.2.0 Revision 22368 Hash (prev commit) b42959ab6a          
#                    Branch is develop                                
#         MPI+OpenMP+SLK+SLEPC+HDF5_MPI_IO Build                      
#                http://www.yambo-code.org                            
#
# Polarizability  ( -<<X>> ) @ Q(1):  0.999999975E-5   0.00000000      0.00000000    [q->0 direction]
#
# Polarizability units: volume
#
# [GEN] GF Energies                               : Perdew, Burke & Ernzerhof(X)+Perdew, Burke & Ernzerhof(C)
# [GEN] Green`s Function                          : Retarded
#
# [GEN] Gauge                                     : Length
# [GEN] [r,Vnl] included                          : yes
#
# DIP band range                                  :   1  20
# DIP band range limits                           :  20   1
# DIP e/h energy range                            :  -1.00000000     -1.00000000    [eV]
# RL vectors in the sum                           :  2637
# [r,Vnl] included                                : yes
# Bands ordered                                   : no
# Direct v evaluation                             : no
# Approach used                                   : G-space v
# Dipoles computed                                : R V P
# Wavefunctions                                   : Perdew, Burke & Ernzerhof(X)+Perdew, Burke & Ernzerhof(C)
#
#
#    E[1] [eV]          Im(alpha)          Re(alpha)
#
        0.000000           0.000000           55.57419
        0.010000           0.001914           55.57428
        0.020000           0.003827           55.57458
        0.030000           0.005741           55.57506
        0.040000           0.007655           55.57573
        0.050000           0.009569           55.57658
        0.060000           0.011483           55.57764
        0.070000           0.013398           55.57889
        0.080000           0.015313           55.58033
        0.090000           0.017228           55.58195
        0.100000           0.019144           55.58376
        0.110000           0.021061           55.58576
        0.120000           0.022978           55.58797
        0.130000           0.024895           55.59036
        0.140000           0.026814           55.59293
        0.150000           0.028733           55.59571
        0.160000           0.030653           55.59869
        0.170000           0.032574           55.60185
        0.180000           0.034495           55.60519
        0.190000           0.036418           55.60874
        0.200000           0.038342           55.61248
        0.210000           0.040266           55.61640
        0.220000           0.042192           55.62052
        0.230000           0.044119           55.62483
        0.240000           0.046047           55.62933
        0.250000           0.047977           55.63402
        0.260000           0.049908           55.63890
        0.270000           0.051840           55.64399
        0.280000           0.053774           55.64928
        0.290000           0.055709           55.65475
        0.300000           0.057645           55.66042
        0.310000           0.059584           55.66628
        0.320000           0.061524           55.67231
        0.330000           0.063465           55.67855
        0.340000           0.065409           55.68500
        0.350000           0.067354           55.69164
        0.360000           0.069301           55.69846
        0.370000           0.071250           55.70547
        0.380000           0.073202           55.71270
        0.390000           0.075155           55.72010
        0.400000           0.077110           55.72770
        0.410000           0.079067           55.73550
        0.420000           0.081027           55.74350
        0.430000           0.082989           55.75170
        0.440000           0.084953           55.76010
        0.450000           0.086920           55.76868
        0.460000           0.088889           55.77745
        0.470000           0.090861           55.78645
        0.480000           0.092835           55.79562
        0.490000           0.094812           55.80498
        0.500000           0.096791           55.81455
        0.510000           0.098773           55.82434
        0.520000           0.100758           55.83430
        0.530000           0.102746           55.84446
        0.540000           0.104737           55.85482
        0.550000           0.106730           55.86538
        0.560000           0.108727           55.87616
        0.570000           0.110727           55.88712
        0.580000           0.112730           55.89827
        0.590000           0.114736           55.90963
        0.600000           0.116746           55.92120
        0.610000           0.118758           55.93296
        0.620000           0.120775           55.94492
        0.630000           0.122794           55.95710
        0.640000           0.124817           55.96946
        0.650000           0.126844           55.98203
        0.660000           0.128875           55.99480
        0.670000           0.130909           56.00777
        0.680000           0.132946           56.02096
        0.690000           0.134988           56.03435
        0.700000           0.137034           56.04794
        0.710000           0.139083           56.06173
        0.720000           0.141137           56.07573
        0.730000           0.143194           56.08992
        0.740000           0.145256           56.10434
        0.750000           0.147322           56.11896
        0.760000           0.149392           56.13379
        0.770000           0.151467           56.14880
        0.780000           0.153546           56.16403
        0.790000           0.155629           56.17947
        0.800000           0.157717           56.19513
        0.810000           0.159810           56.21100
        0.820000           0.161907           56.22706
        0.830000           0.164009           56.24334
        0.840000           0.166116           56.25983
        0.850000           0.168228           56.27654
        0.860000           0.170344           56.29345
        0.870000           0.172466           56.31057
        0.880000           0.174593           56.32791
        0.890000           0.176725           56.34546
        0.900000           0.178862           56.36323
        0.910000           0.181004           56.38120
        0.920000           0.183152           56.39938
        0.930000           0.185306           56.41779
        0.940000           0.187464           56.43641
        0.950000           0.189629           56.45525
        0.960000           0.191799           56.47431
        0.970000           0.193975           56.49356
        0.980000           0.196156           56.51305
        0.990000           0.198344           56.53276
        1.000000           0.200538           56.55268
        1.010000           0.202737           56.57283
        1.020000           0.204943           56.59318
        1.030000           0.207155           56.61378
        1.040000           0.209373           56.63457
        1.050000           0.211597           56.65561
        1.060000           0.213828           56.67685
        1.070000           0.216066           56.69833
        1.080000           0.218310           56.72002
        1.090000           0.220561           56.74195
        1.100000           0.222818           56.76408
        1.110000           0.225083           56.78647
        1.120000           0.227354           56.80906
        1.130000           0.229632           56.83187
        1.140000           0.231918           56.85494
        1.150000           0.234210           56.87821
        1.160000           0.236510           56.90173
        1.170000           0.238817           56.92546
        1.180000           0.241132           56.94944
        1.190000           0.243454           56.97365
        1.200000           0.245784           56.99809
        1.210000           0.248121           57.02276
        1.220000           0.250467           57.04766
        1.230000           0.252820           57.07280
        1.240000           0.255181           57.09817
        1.250000           0.257550           57.12378
        1.260000           0.259927           57.14963
        1.270000           0.262313           57.17570
        1.280000           0.264707           57.20205
        1.290000           0.267109           57.22860
        1.300000           0.269520           57.25541
        1.310000           0.271940           57.28245
        1.320000           0.274368           57.30973
        1.330000           0.276805           57.33727
        1.340000           0.279251           57.36503
        1.350000           0.281707           57.39305
        1.360000           0.284171           57.42132
        1.370000           0.286644           57.44982
        1.380000           0.289127           57.47859
        1.390000           0.291619           57.50759
        1.400000           0.294121           57.53685
        1.410000           0.296632           57.56635
        1.420000           0.299154           57.59610
        1.430000           0.301685           57.62611
        1.440000           0.304226           57.65639
        1.450000           0.306777           57.68688
        1.460000           0.309338           57.71766
        1.470000           0.311910           57.74868
        1.480000           0.314492           57.77997
        1.490000           0.317084           57.81149
        1.500000           0.319688           57.84332
        1.510000           0.322302           57.87537
        1.520000           0.324927           57.90770
        1.530000           0.327562           57.94029
        1.540000           0.330209           57.97316
        1.550000           0.332868           58.00627
        1.560000           0.335537           58.03964
        1.570000           0.338218           58.07331
        1.580000           0.340911           58.10721
        1.590000           0.343616           58.14140
        1.600000           0.346332           58.17587
        1.610000           0.349060           58.21059
        1.620000           0.351801           58.24559
        1.630000           0.354553           58.28088
        1.640000           0.357319           58.31641
        1.650000           0.360096           58.35226
        1.660000           0.362886           58.38834
        1.670000           0.365689           58.42474
        1.680000           0.368505           58.46141
        1.690000           0.371334           58.49835
        1.700000           0.374176           58.53557
        1.710000           0.377032           58.57308
        1.720000           0.379901           58.61091
        1.730000           0.382784           58.64898
        1.740000           0.385680           58.68737
        1.750000           0.388591           58.72604
        1.760000           0.391515           58.76498
        1.770000           0.394454           58.80423
        1.780000           0.397407           58.84378
        1.790000           0.400375           58.88363
        1.800000           0.403357           58.92376
        1.810000           0.406355           58.96419
        1.820000           0.409367           59.00493
        1.830000           0.412394           59.04597
        1.840000           0.415437           59.08732
        1.850000           0.418496           59.12895
        1.860000           0.421570           59.17091
        1.870000           0.424659           59.21318
        1.880000           0.427765           59.25574
        1.890000           0.430887           59.29861
        1.900000           0.434026           59.34180
        1.910000           0.437181           59.38529
        1.920000           0.440352           59.42913
        1.930000           0.443541           59.47328
        1.940000           0.446747           59.51772
        1.950000           0.449969           59.56251
        1.960000           0.453210           59.60760
        1.970000           0.456468           59.65302
        1.980000           0.459744           59.69876
        1.990000           0.463038           59.74485
        2.000000           0.466350           59.79125
        2.010000           0.469681           59.83800
        2.020000           0.473030           59.88507
        2.030000           0.476398           59.93247
        2.040000           0.479785           59.98024
        2.050000           0.483191           60.02831
        2.060000           0.486617           60.07672
        2.070000           0.490063           60.12550
        2.080000           0.493528           60.17461
        2.090000           0.497014           60.22405
        2.100000           0.500519           60.27388
        2.110000           0.504046           60.32403
        2.120000           0.507593           60.37457
        2.130000           0.511161           60.42542
        2.140000           0.514751           60.47665
        2.150000           0.518362           60.52823
        2.160000           0.521994           60.58017
        2.170000           0.525649           60.63247
        2.180000           0.529326           60.68516
        2.190000           0.533025           60.73820
        2.200000           0.536747           60.79162
        2.210000           0.540492           60.84540
        2.220000           0.544260           60.89956
        2.230000           0.548052           60.95409
        2.240000           0.551867           61.00901
        2.250000           0.555707           61.06430
        2.260000           0.559571           61.11999
        2.270000           0.563459           61.17607
        2.280000           0.567372           61.23253
        2.290000           0.571311           61.28938
        2.300000           0.575274           61.34660
        2.310000           0.579264           61.40425
        2.320000           0.583279           61.46227
        2.330000           0.587321           61.52073
        2.340000           0.591389           61.57957
        2.350000           0.595484           61.63882
        2.360000           0.599607           61.69847
        2.370000           0.603757           61.75856
        2.380000           0.607934           61.81906
        2.390000           0.612141           61.87995
        2.400000           0.616375           61.94130
        2.410000           0.620638           62.00304
        2.420000           0.624930           62.06523
        2.430000           0.629252           62.12785
        2.440000           0.633604           62.19088
        2.450000           0.637986           62.25436
        2.460000           0.642398           62.31828
        2.470000           0.646842           62.38265
        2.480000           0.651317           62.44746
        2.490000           0.655823           62.51270
        2.500000           0.660361           62.57838
        2.510000           0.664932           62.64455
        2.520000           0.669536           62.71115
        2.530000           0.674173           62.77824
        2.540000           0.678843           62.84577
        2.550000           0.683548           62.91378
        2.560000           0.688286           62.98227
        2.570000           0.693060           63.05120
        2.580000           0.697869           63.12063
        2.590000           0.702713           63.19054
        2.600000           0.707594           63.26093
        2.610000           0.712511           63.33182
        2.620000           0.717465           63.40319
        2.630000           0.722457           63.47505
        2.640000           0.727486           63.54742
        2.650000           0.732554           63.62030
        2.660000           0.737661           63.69367
        2.670000           0.742807           63.76758
        2.680000           0.747993           63.84198
        2.690000           0.753219           63.91689
        2.700000           0.758487           63.99235
        2.710000           0.763795           64.06833
        2.720000           0.769145           64.14484
        2.730000           0.774538           64.22187
        2.740000           0.779974           64.29945
        2.750000           0.785452           64.37758
        2.760000           0.790976           64.45625
        2.770000           0.796544           64.53549
        2.780000           0.802156           64.61526
        2.790000           0.807815           64.69560
        2.800000           0.813520           64.77651
        2.810000           0.819272           64.85802
        2.820000           0.825071           64.94006
        2.830000           0.830919           65.02269
        2.840000           0.836815           65.10592
        2.850000           0.842761           65.18973
        2.860000           0.848757           65.27414
        2.870000           0.854803           65.35915
        2.880000           0.860901           65.44475
        2.890000           0.867052           65.53098
        2.900000           0.873254           65.61779
        2.910000           0.879511           65.70527
        2.920000           0.885821           65.79335
        2.930000           0.892187           65.88208
        2.940000           0.898608           65.97142
        2.950000           0.905085           66.06142
        2.960000           0.911620           66.15206
        2.970000           0.918213           66.24338
        2.980000           0.924865           66.33532
        2.990000           0.931575           66.42793
        3.000000           0.938347           66.52122
        3.010000           0.945180           66.61520
        3.020000           0.952075           66.70985
        3.030000           0.959032           66.80518
        3.040000           0.966054           66.90125
        3.050000           0.973140           66.99798
        3.060000           0.980292           67.09542
        3.070000           0.987510           67.19359
        3.080000           0.994796           67.29249
        3.090000           1.002150           67.39211
        3.100000           1.009574           67.49245
        3.110000           1.017068           67.59357
        3.120000           1.024634           67.69540
        3.130000           1.032272           67.79800
        3.140000           1.039983           67.90136
        3.150000           1.047769           68.00549
        3.160000           1.055631           68.11040
        3.170000           1.063570           68.21609
        3.180000           1.071586           68.32262
        3.190000           1.079682           68.42991
        3.200000           1.087857           68.53799
        3.210000           1.096115           68.64692
        3.220000           1.104455           68.75667
        3.230000           1.112878           68.86726
