#                                                                     
#   __   __     _        __  __       ____      U  ___  u             
#   \ \ / / U  /"\  U u |" \/ "| u U | __") u    \/"_ \/              
#    \ V /   \/ _ \/   \| |\/| |/   \|  _ \/     | | | |              
#   U_|"|_u  / ___ \    | |  | |     | |_) | .-,_| |_| |              
#     |_|   /_/   \_\   |_|  |_|     |____/   \_)-\___/               
# .-,//|(_   \\    >>  <<,-,,-.     _|| \\_        \\                 
#  \_) (__) (__)  (__)  (./  \.)   (__) (__)      (__)                
#                                                                     
#                                                                     
# Version 5.2.0 Revision 22368 Hash (prev commit) b42959ab6a          
#                    Branch is develop                                
#         MPI+OpenMP+SLK+SLEPC+HDF5_MPI_IO Build                      
#                http://www.yambo-code.org                            
#
# Joint Density of states @ Q(1):  0.999999975E-5   0.00000000      0.00000000    [q->0 direction]
#
# [GEN] GF Energies                               : Perdew, Burke & Ernzerhof(X)+Perdew, Burke & Ernzerhof(C)
# [GEN] Green`s Function                          : Retarded
#
# [GEN] Gauge                                     : Length
# [GEN] [r,Vnl] included                          : yes
#
# DIP band range                                  :   1  20
# DIP band range limits                           :  20   1
# DIP e/h energy range                            :  -1.00000000     -1.00000000    [eV]
# RL vectors in the sum                           :  2637
# [r,Vnl] included                                : yes
# Bands ordered                                   : no
# Direct v evaluation                             : no
# Approach used                                   : G-space v
# Dipoles computed                                : R V P
# Wavefunctions                                   : Perdew, Burke & Ernzerhof(X)+Perdew, Burke & Ernzerhof(C)
#
#
#    E[1] [eV]          Im(jdos)           Re(jdos)
#
        0.000000           0.000000           9.731560
        0.010000           0.144085E-3        9.731569
        0.020000           0.288165E-3        9.731587
        0.030000           0.432257E-3        9.731625
        0.040000           0.576354E-3        9.731674
        0.050000           0.720466E-3        9.731743
        0.060000           0.864585E-3        9.731821
        0.070000           0.001009           9.731912
        0.080000           0.001153           9.732020
        0.090000           0.001297           9.732142
        0.100000           0.001441           9.732281
        0.110000           0.001585           9.732430
        0.120000           0.001730           9.732596
        0.130000           0.001874           9.732778
        0.140000           0.002018           9.732969
        0.150000           0.002163           9.733179
        0.160000           0.002307           9.733405
        0.170000           0.002452           9.733641
        0.180000           0.002596           9.733891
        0.190000           0.002741           9.734160
        0.200000           0.002885           9.734440
        0.210000           0.003030           9.734735
        0.220000           0.003175           9.735046
        0.230000           0.003319           9.735372
        0.240000           0.003464           9.735710
        0.250000           0.003609           9.736065
        0.260000           0.003754           9.736430
        0.270000           0.003899           9.736814
        0.280000           0.004044           9.737212
        0.290000           0.004189           9.737622
        0.300000           0.004335           9.738048
        0.310000           0.004480           9.738486
        0.320000           0.004625           9.738947
        0.330000           0.004771           9.739414
        0.340000           0.004917           9.739899
        0.350000           0.005062           9.740395
        0.360000           0.005208           9.740906
        0.370000           0.005354           9.741433
        0.380000           0.005500           9.741978
        0.390000           0.005646           9.742537
        0.400000           0.005792           9.743109
        0.410000           0.005939           9.743691
        0.420000           0.006085           9.744294
        0.430000           0.006232           9.744909
        0.440000           0.006378           9.745541
        0.450000           0.006525           9.746183
        0.460000           0.006672           9.746842
        0.470000           0.006819           9.747520
        0.480000           0.006966           9.748207
        0.490000           0.007113           9.748907
        0.500000           0.007261           9.749632
        0.510000           0.007409           9.750362
        0.520000           0.007556           9.751108
        0.530000           0.007704           9.751873
        0.540000           0.007852           9.752651
        0.550000           0.008000           9.753439
        0.560000           0.008149           9.754246
        0.570000           0.008297           9.755067
        0.580000           0.008446           9.755905
        0.590000           0.008595           9.756758
        0.600000           0.008744           9.757624
        0.610000           0.008893           9.758506
        0.620000           0.009042           9.759401
        0.630000           0.009191           9.760311
        0.640000           0.009341           9.761237
        0.650000           0.009491           9.762180
        0.660000           0.009641           9.763139
        0.670000           0.009791           9.764109
        0.680000           0.009942           9.765093
        0.690000           0.010092           9.766093
        0.700000           0.010243           9.767111
        0.710000           0.010394           9.768143
        0.720000           0.010545           9.769189
        0.730000           0.010697           9.770248
        0.740000           0.010848           9.771326
        0.750000           0.011000           9.772418
        0.760000           0.011152           9.773525
        0.770000           0.011305           9.774647
        0.780000           0.011457           9.775784
        0.790000           0.011610           9.776934
        0.800000           0.011763           9.778105
        0.810000           0.011916           9.779288
        0.820000           0.012069           9.780484
        0.830000           0.012223           9.781699
        0.840000           0.012377           9.782926
        0.850000           0.012531           9.784174
        0.860000           0.012686           9.785433
        0.870000           0.012840           9.786709
        0.880000           0.012995           9.787998
        0.890000           0.013150           9.789304
        0.900000           0.013306           9.790626
        0.910000           0.013462           9.791965
        0.920000           0.013617           9.793321
        0.930000           0.013774           9.794689
        0.940000           0.013930           9.796070
        0.950000           0.014087           9.797470
        0.960000           0.014244           9.798886
        0.970000           0.014402           9.800319
        0.980000           0.014559           9.801765
        0.990000           0.014717           9.803226
        1.000000           0.014876           9.804707
        1.010000           0.015034           9.806205
        1.020000           0.015193           9.807710
        1.030000           0.015352           9.809237
        1.040000           0.015512           9.810779
        1.050000           0.015672           9.812339
        1.060000           0.015832           9.813912
        1.070000           0.015993           9.815503
        1.080000           0.016153           9.817109
        1.090000           0.016315           9.818731
        1.100000           0.016476           9.820369
        1.110000           0.016638           9.822022
        1.120000           0.016800           9.823695
        1.130000           0.016963           9.825381
        1.140000           0.017126           9.827085
        1.150000           0.017289           9.828804
        1.160000           0.017453           9.830541
        1.170000           0.017617           9.832292
        1.180000           0.017781           9.834064
        1.190000           0.017946           9.835848
        1.200000           0.018111           9.837650
        1.210000           0.018277           9.839466
        1.220000           0.018443           9.841301
        1.230000           0.018609           9.843152
        1.240000           0.018776           9.845021
        1.250000           0.018943           9.846904
        1.260000           0.019111           9.848806
        1.270000           0.019279           9.850724
        1.280000           0.019447           9.852656
        1.290000           0.019616           9.854610
        1.300000           0.019785           9.856577
        1.310000           0.019955           9.858565
        1.320000           0.020125           9.860565
        1.330000           0.020295           9.862586
        1.340000           0.020466           9.864624
        1.350000           0.020638           9.866675
        1.360000           0.020810           9.868751
        1.370000           0.020982           9.870833
        1.380000           0.021155           9.872941
        1.390000           0.021328           9.875064
        1.400000           0.021502           9.877200
        1.410000           0.021676           9.879358
        1.420000           0.021851           9.881536
        1.430000           0.022027           9.883726
        1.440000           0.022202           9.885938
        1.450000           0.022379           9.888164
        1.460000           0.022555           9.890407
        1.470000           0.022733           9.892672
        1.480000           0.022910           9.894951
        1.490000           0.023089           9.897251
        1.500000           0.023268           9.899563
        1.510000           0.023447           9.901901
        1.520000           0.023627           9.904253
        1.530000           0.023808           9.906623
        1.540000           0.023989           9.909009
        1.550000           0.024170           9.911419
        1.560000           0.024352           9.913840
        1.570000           0.024535           9.916283
        1.580000           0.024719           9.918745
        1.590000           0.024902           9.921223
        1.600000           0.025087           9.923718
        1.610000           0.025272           9.926235
        1.620000           0.025458           9.928772
        1.630000           0.025644           9.931324
        1.640000           0.025831           9.933896
        1.650000           0.026019           9.936487
        1.660000           0.026207           9.939096
        1.670000           0.026396           9.941725
        1.680000           0.026585           9.944368
        1.690000           0.026775           9.947035
        1.700000           0.026966           9.949723
        1.710000           0.027157           9.952423
        1.720000           0.027350           9.955150
        1.730000           0.027542           9.957889
        1.740000           0.027736           9.960649
        1.750000           0.027930           9.963431
        1.760000           0.028125           9.966234
        1.770000           0.028320           9.969052
        1.780000           0.028517           9.971894
        1.790000           0.028714           9.974752
        1.800000           0.028911           9.977632
        1.810000           0.029110           9.980529
        1.820000           0.029309           9.983446
        1.830000           0.029509           9.986385
        1.840000           0.029710           9.989345
        1.850000           0.029911           9.992322
        1.860000           0.030113           9.995321
        1.870000           0.030316           9.998337
        1.880000           0.030520           10.00138
        1.890000           0.030725           10.00444
        1.900000           0.030930           10.00752
        1.910000           0.031137           10.01062
        1.920000           0.031344           10.01374
        1.930000           0.031552           10.01689
        1.940000           0.031760           10.02005
        1.950000           0.031970           10.02323
        1.960000           0.032180           10.02643
        1.970000           0.032392           10.02966
        1.980000           0.032604           10.03291
        1.990000           0.032817           10.03617
        2.000000           0.033031           10.03946
        2.010000           0.033246           10.04277
        2.020000           0.033462           10.04610
        2.030000           0.033679           10.04946
        2.040000           0.033896           10.05284
        2.050000           0.034115           10.05623
        2.060000           0.034334           10.05965
        2.070000           0.034555           10.06310
        2.080000           0.034777           10.06656
        2.090000           0.034999           10.07004
        2.100000           0.035223           10.07355
        2.110000           0.035447           10.07708
        2.120000           0.035673           10.08063
        2.130000           0.035899           10.08421
        2.140000           0.036127           10.08781
        2.150000           0.036356           10.09143
        2.160000           0.036585           10.09507
        2.170000           0.036816           10.09874
        2.180000           0.037048           10.10242
        2.190000           0.037281           10.10614
        2.200000           0.037515           10.10987
        2.210000           0.037750           10.11363
        2.220000           0.037987           10.11742
        2.230000           0.038224           10.12122
        2.240000           0.038463           10.12505
        2.250000           0.038703           10.12891
        2.260000           0.038944           10.13279
        2.270000           0.039186           10.13669
        2.280000           0.039430           10.14062
        2.290000           0.039674           10.14457
        2.300000           0.039920           10.14854
        2.310000           0.040168           10.15254
        2.320000           0.040416           10.15657
        2.330000           0.040666           10.16062
        2.340000           0.040917           10.16469
        2.350000           0.041169           10.16879
        2.360000           0.041423           10.17292
        2.370000           0.041678           10.17707
        2.380000           0.041934           10.18124
        2.390000           0.042192           10.18544
        2.400000           0.042451           10.18967
        2.410000           0.042712           10.19393
        2.420000           0.042974           10.19821
        2.430000           0.043237           10.20251
        2.440000           0.043502           10.20684
        2.450000           0.043768           10.21120
        2.460000           0.044036           10.21559
        2.470000           0.044306           10.22000
        2.480000           0.044576           10.22444
        2.490000           0.044849           10.22890
        2.500000           0.045123           10.23340
        2.510000           0.045398           10.23792
        2.520000           0.045676           10.24247
        2.530000           0.045954           10.24704
        2.540000           0.046235           10.25165
        2.550000           0.046517           10.25628
        2.560000           0.046800           10.26094
        2.570000           0.047086           10.26563
        2.580000           0.047373           10.27035
        2.590000           0.047662           10.27509
        2.600000           0.047952           10.27987
        2.610000           0.048245           10.28467
        2.620000           0.048539           10.28950
        2.630000           0.048835           10.29437
        2.640000           0.049133           10.29926
        2.650000           0.049432           10.30418
        2.660000           0.049734           10.30913
        2.670000           0.050037           10.31411
        2.680000           0.050343           10.31913
        2.690000           0.050650           10.32417
        2.700000           0.050960           10.32924
        2.710000           0.051271           10.33435
        2.720000           0.051584           10.33948
        2.730000           0.051900           10.34465
        2.740000           0.052217           10.34985
        2.750000           0.052537           10.35508
        2.760000           0.052859           10.36034
        2.770000           0.053183           10.36564
        2.780000           0.053509           10.37097
        2.790000           0.053837           10.37633
        2.800000           0.054168           10.38172
        2.810000           0.054501           10.38714
        2.820000           0.054836           10.39260
        2.830000           0.055173           10.39810
        2.840000           0.055513           10.40362
        2.850000           0.055855           10.40918
        2.860000           0.056200           10.41477
        2.870000           0.056547           10.42041
        2.880000           0.056897           10.42607
        2.890000           0.057249           10.43177
        2.900000           0.057604           10.43750
        2.910000           0.057961           10.44327
        2.920000           0.058321           10.44908
        2.930000           0.058684           10.45492
        2.940000           0.059049           10.46079
        2.950000           0.059417           10.46671
        2.960000           0.059788           10.47266
        2.970000           0.060161           10.47865
        2.980000           0.060538           10.48467
        2.990000           0.060917           10.49074
        3.000000           0.061299           10.49684
        3.010000           0.061685           10.50298
        3.020000           0.062073           10.50916
        3.030000           0.062464           10.51537
        3.040000           0.062858           10.52163
        3.050000           0.063256           10.52792
        3.060000           0.063657           10.53426
        3.070000           0.064061           10.54063
        3.080000           0.064468           10.54705
        3.090000           0.064878           10.55350
        3.100000           0.065292           10.56000
        3.110000           0.065709           10.56654
        3.120000           0.066130           10.57312
        3.130000           0.066555           10.57974
        3.140000           0.066982           10.58641
        3.150000           0.067414           10.59311
        3.160000           0.067849           10.59987
        3.170000           0.068288           10.60666
        3.180000           0.068730           10.61350
        3.190000           0.069177           10.62038
        3.200000           0.069627           10.62731
        3.210000           0.070082           10.63428
        3.220000           0.070540           10.64130
        3.230000           0.071002           10.64836
        3.240000           0.071469           10.65547
