#                                                                     
# ooooo   oooo ..     ooo        ooo ooooooooo.    .oooo.             
#  `88.   .8" .88.    `88.       .88 `88"   `Y8b  dP"  `Yb            
#   `88. .8" .8"88.    888b     d"88  88     888 88      88           
#    `88.8" .8" `88.   8 Y88. .P  88  88oooo888" 88      88           
#     `88" .88ooo888.  8  `888"   88  88    `88b 88      88           
#      88 .8"     `88. 8    Y     88  88    .88P `8b    d8"           
#     o88o88o      888o8          88 o88bood8P"   `Ybod8P"            
#                                                                     
#                                                                     
# Version 5.2.0 Revision 23236 Hash (prev commit) fef8b788e7          
#                 Branch is phys-dichroism                            
#          MPI+OpenMP+SLK+SLEPC+HDF5_MPI_IO Build                     
#                 http://www.yambo-code.org                           
#
# Polarizability  ( -<<X>> ) @ Q(1):   1.00000000      0.00000000      0.00000000    [q->0 direction]
#
# Polarizability units: volume
#
# [GEN] GF Energies                               : Perdew, Burke & Ernzerhof(X)+Perdew, Burke & Ernzerhof(C)
# [GEN] Green`s Function                          : Retarded
#
# [GEN] Gauge                                     : Length
# [GEN] [r,Vnl] included                          : yes
#
# DIP band range                                  :   2   7
# DIP band range limits                           :   7   2
# DIP e/h energy range                            :  -1.00000000     -1.00000000    [eV]
# RL vectors in the sum                           :  2637
# [r,Vnl] included                                : yes
# Bands ordered                                   : no
# Direct v evaluation                             : no
# Approach used                                   : G-space v
# Dipoles computed                                : R V P
# Wavefunctions                                   : Perdew, Burke & Ernzerhof(X)+Perdew, Burke & Ernzerhof(C)
#
#
# [K] Identifier                                  :  1723
# [K] Dimension                                   :   9
# [K] Bands                                       :   2   7
# [K] Exchange res                                : yes
# [K] Correlation res                             : no
# [K] Kernel`s coupling                           : no
# [K] Exchange cpl                                : no
# [K] Correlation cpl                             : no
# [K] W interaction is bare                       : no
# [K] ALDA kernel in R-space                      : no
# [K] RL vectors exchange                         :   4015
# [K] E/h energy range                            :  -1.00000000     -1.00000000    [eV]
# [K] Coupling range                              :   100.000000      100.000000    [o/o]
# [X] Response Kind                               : BAR
#
#
#    E[1] [eV]          Im(alpha)          Re(alpha)          Im(alpha_o)        Re(alpha_o)
#
       -20.00000          -0.218571          -12.71036          -0.086354          -7.025526
       -19.98000          -0.219929          -12.75419          -0.086696          -7.042828
       -19.96000          -0.221300          -12.79829          -0.087040          -7.060198
       -19.94000          -0.222684          -12.84266          -0.087386          -7.077638
       -19.92000          -0.224081          -12.88732          -0.087734          -7.095146
       -19.90000          -0.225491          -12.93225          -0.088084          -7.112725
       -19.88000          -0.226915          -12.97747          -0.088436          -7.130373
       -19.86000          -0.228354          -13.02297          -0.088790          -7.148094
       -19.84000          -0.229806          -13.06876          -0.089146          -7.165882
       -19.82000          -0.231272          -13.11485          -0.089503          -7.183745
       -19.80000          -0.232753          -13.16123          -0.089863          -7.201677
       -19.78000          -0.234248          -13.20790          -0.090225          -7.219683
       -19.76000          -0.235758          -13.25488          -0.090589          -7.237761
       -19.74000          -0.237283          -13.30215          -0.090956          -7.255912
       -19.72000          -0.238824          -13.34974          -0.091324          -7.274136
       -19.70000          -0.240379          -13.39763          -0.091694          -7.292434
       -19.68000          -0.241951          -13.44584          -0.092067          -7.310806
       -19.66000          -0.243538          -13.49436          -0.092442          -7.329254
       -19.64000          -0.245141          -13.54321          -0.092819          -7.347778
       -19.62000          -0.246761          -13.59237          -0.093198          -7.366375
       -19.60000          -0.248397          -13.64186          -0.093579          -7.385049
       -19.58000          -0.250049          -13.69167          -0.093962          -7.403800
       -19.56000          -0.251719          -13.74182          -0.094348          -7.422626
       -19.54000          -0.253406          -13.79230          -0.094736          -7.441531
       -19.52000          -0.255111          -13.84312          -0.095126          -7.460514
       -19.50000          -0.256833          -13.89429          -0.095519          -7.479574
       -19.48000          -0.258573          -13.94580          -0.095914          -7.498714
       -19.46000          -0.260331          -13.99766          -0.096311          -7.517931
       -19.44000          -0.262108          -14.04987          -0.096711          -7.537231
       -19.42000          -0.263904          -14.10244          -0.097113          -7.556608
       -19.40000          -0.265718          -14.15537          -0.097517          -7.576067
       -19.38000          -0.267552          -14.20866          -0.097924          -7.595607
       -19.36000          -0.269406          -14.26233          -0.098333          -7.615228
       -19.34000          -0.271279          -14.31636          -0.098744          -7.634933
       -19.32000          -0.273173          -14.37077          -0.099159          -7.654718
       -19.30000          -0.275087          -14.42556          -0.099575          -7.674587
       -19.28000          -0.277022          -14.48074          -0.099994          -7.694541
       -19.26000          -0.278978          -14.53630          -0.100416          -7.714578
       -19.24000          -0.280956          -14.59226          -0.100840          -7.734697
       -19.22000          -0.282955          -14.64861          -0.101266          -7.754904
       -19.20000          -0.284976          -14.70537          -0.101696          -7.775197
       -19.18000          -0.287020          -14.76253          -0.102128          -7.795574
       -19.16000          -0.289087          -14.82010          -0.102562          -7.816039
       -19.14000          -0.291176          -14.87809          -0.102999          -7.836590
       -19.12000          -0.293289          -14.93650          -0.103439          -7.857230
       -19.10000          -0.295426          -14.99533          -0.103881          -7.877958
       -19.08000          -0.297587          -15.05459          -0.104327          -7.898774
       -19.06000          -0.299773          -15.11428          -0.104774          -7.919678
       -19.04000          -0.301984          -15.17442          -0.105225          -7.940674
       -19.02000          -0.304220          -15.23499          -0.105679          -7.961760
       -19.00000          -0.306482          -15.29602          -0.106135          -7.982935
       -18.98000          -0.308770          -15.35750          -0.106594          -8.004204
       -18.96000          -0.311085          -15.41944          -0.107056          -8.025565
       -18.94000          -0.313426          -15.48185          -0.107521          -8.047017
       -18.92000          -0.315795          -15.54472          -0.107988          -8.068563
       -18.90000          -0.318193          -15.60808          -0.108459          -8.090204
       -18.88000          -0.320618          -15.67190          -0.108932          -8.111938
       -18.86000          -0.323072          -15.73623          -0.109409          -8.133768
       -18.84000          -0.325556          -15.80104          -0.109889          -8.155692
       -18.82000          -0.328069          -15.86635          -0.110371          -8.177713
       -18.80000          -0.330613          -15.93217          -0.110857          -8.199831
       -18.78000          -0.333187          -15.99850          -0.111345          -8.222046
       -18.76000          -0.335793          -16.06534          -0.111837          -8.244359
       -18.74000          -0.338431          -16.13271          -0.112332          -8.266771
       -18.72000          -0.341101          -16.20061          -0.112830          -8.289281
       -18.70000          -0.343804          -16.26904          -0.113331          -8.311892
       -18.68000          -0.346540          -16.33802          -0.113835          -8.334603
       -18.66000          -0.349311          -16.40755          -0.114343          -8.357415
       -18.64000          -0.352116          -16.47763          -0.114854          -8.380329
       -18.62000          -0.354956          -16.54828          -0.115368          -8.403346
       -18.60000          -0.357833          -16.61950          -0.115885          -8.426465
       -18.58000          -0.360746          -16.69129          -0.116406          -8.449690
       -18.56000          -0.363696          -16.76367          -0.116930          -8.473017
       -18.54000          -0.366683          -16.83665          -0.117458          -8.496449
       -18.52000          -0.369710          -16.91022          -0.117989          -8.519988
       -18.50000          -0.372775          -16.98440          -0.118523          -8.543633
       -18.48000          -0.375880          -17.05920          -0.119061          -8.567387
       -18.46000          -0.379026          -17.13462          -0.119602          -8.591247
       -18.44000          -0.382213          -17.21067          -0.120147          -8.615215
       -18.42000          -0.385442          -17.28737          -0.120696          -8.639293
       -18.40000          -0.388714          -17.36471          -0.121248          -8.663481
       -18.38000          -0.392030          -17.44271          -0.121804          -8.687780
       -18.36000          -0.395390          -17.52138          -0.122363          -8.712192
       -18.34000          -0.398796          -17.60072          -0.122926          -8.736713
       -18.32000          -0.402247          -17.68075          -0.123493          -8.761350
       -18.30000          -0.405746          -17.76147          -0.124064          -8.786098
       -18.28000          -0.409292          -17.84289          -0.124638          -8.810961
       -18.26000          -0.412887          -17.92502          -0.125216          -8.835941
       -18.24000          -0.416532          -18.00788          -0.125799          -8.861035
       -18.22000          -0.420227          -18.09147          -0.126385          -8.886248
       -18.20000          -0.423974          -18.17581          -0.126975          -8.911578
       -18.18000          -0.427774          -18.26089          -0.127569          -8.937024
       -18.16000          -0.431627          -18.34674          -0.128167          -8.962593
       -18.14000          -0.435535          -18.43336          -0.128769          -8.988276
       -18.12000          -0.439499          -18.52077          -0.129375          -9.014087
       -18.10000          -0.443519          -18.60897          -0.129985          -9.040017
       -18.08000          -0.447598          -18.69799          -0.130599          -9.066067
       -18.06000          -0.451736          -18.78782          -0.131218          -9.092241
       -18.04000          -0.455934          -18.87849          -0.131841          -9.118542
       -18.02000          -0.460194          -18.96999          -0.132468          -9.144963
       -18.00000          -0.464516          -19.06236          -0.133099          -9.171513
       -17.98000          -0.468903          -19.15559          -0.133735          -9.198190
       -17.96000          -0.473355          -19.24971          -0.134375          -9.224995
       -17.94000          -0.477874          -19.34471          -0.135020          -9.251925
       -17.92000          -0.482461          -19.44063          -0.135669          -9.278986
       -17.90000          -0.487117          -19.53747          -0.136323          -9.306177
       -17.88000          -0.491845          -19.63524          -0.136981          -9.333502
       -17.86000          -0.496645          -19.73397          -0.137644          -9.360955
       -17.84000          -0.501520          -19.83366          -0.138311          -9.388542
       -17.82000          -0.506470          -19.93433          -0.138983          -9.416265
       -17.80000          -0.511497          -20.03600          -0.139660          -9.444120
       -17.78000          -0.516604          -20.13867          -0.140342          -9.472112
       -17.76000          -0.521791          -20.24237          -0.141028          -9.500242
       -17.74000          -0.527061          -20.34712          -0.141719          -9.528507
       -17.72000          -0.532415          -20.45292          -0.142416          -9.556913
       -17.70000          -0.537855          -20.55980          -0.143117          -9.585457
       -17.68000          -0.543383          -20.66777          -0.143823          -9.614143
       -17.66000          -0.549002          -20.77686          -0.144534          -9.642970
       -17.64000          -0.554712          -20.88707          -0.145251          -9.671940
       -17.62000          -0.560517          -20.99843          -0.145972          -9.701054
       -17.60000          -0.566418          -21.11096          -0.146699          -9.730313
       -17.58000          -0.572418          -21.22468          -0.147431          -9.759716
       -17.56000          -0.578518          -21.33960          -0.148168          -9.789265
       -17.54000          -0.584722          -21.45575          -0.148911          -9.818965
       -17.52000          -0.591032          -21.57314          -0.149659          -9.848813
       -17.50000          -0.597449          -21.69181          -0.150413          -9.878812
       -17.48000          -0.603978          -21.81176          -0.151172          -9.908960
       -17.46000          -0.610620          -21.93303          -0.151936          -9.939262
       -17.44000          -0.617377          -22.05562          -0.152707          -9.969715
       -17.42000          -0.624255          -22.17960          -0.153483          -10.00033
       -17.40000          -0.631253          -22.30493          -0.154264          -10.03109
       -17.38000          -0.638377          -22.43169          -0.155052          -10.06201
       -17.36000          -0.645628          -22.55987          -0.155845          -10.09309
       -17.34000          -0.653011          -22.68951          -0.156644          -10.12433
       -17.32000          -0.660527          -22.82064          -0.157450          -10.15573
       -17.30000          -0.668182          -22.95327          -0.158261          -10.18729
       -17.28000          -0.675978          -23.08744          -0.159078          -10.21902
       -17.26000          -0.683918          -23.22319          -0.159902          -10.25090
       -17.24000          -0.692007          -23.36053          -0.160731          -10.28296
       -17.22000          -0.700249          -23.49949          -0.161567          -10.31518
       -17.20000          -0.708647          -23.64011          -0.162410          -10.34756
       -17.18000          -0.717205          -23.78242          -0.163259          -10.38012
       -17.16000          -0.725929          -23.92645          -0.164114          -10.41284
       -17.14000          -0.734821          -24.07224          -0.164976          -10.44574
       -17.12000          -0.743888          -24.21982          -0.165844          -10.47881
       -17.10000          -0.753132          -24.36921          -0.166719          -10.51206
       -17.08000          -0.762560          -24.52047          -0.167601          -10.54548
       -17.06000          -0.772176          -24.67362          -0.168490          -10.57908
       -17.04000          -0.781986          -24.82870          -0.169385          -10.61285
       -17.02000          -0.791995          -24.98576          -0.170288          -10.64681
       -17.00000          -0.802208          -25.14483          -0.171197          -10.68094
       -16.98000          -0.812632          -25.30596          -0.172114          -10.71526
       -16.96000          -0.823271          -25.46918          -0.173038          -10.74977
       -16.94000          -0.834133          -25.63454          -0.173969          -10.78445
       -16.92000          -0.845225          -25.80208          -0.174907          -10.81933
       -16.90000          -0.856551          -25.97185          -0.175853          -10.85439
       -16.88000          -0.868121          -26.14391          -0.176807          -10.88965
       -16.86000          -0.879940          -26.31829          -0.177768          -10.92509
       -16.84000          -0.892016          -26.49504          -0.178736          -10.96073
       -16.82000          -0.904357          -26.67422          -0.179713          -10.99656
       -16.80000          -0.916971          -26.85589          -0.180697          -11.03259
       -16.78000          -0.929866          -27.04009          -0.181689          -11.06881
       -16.76000          -0.943052          -27.22688          -0.182689          -11.10524
       -16.74000          -0.956536          -27.41633          -0.183697          -11.14186
       -16.72000          -0.970330          -27.60850          -0.184713          -11.17869
       -16.70000          -0.984439          -27.80342          -0.185738          -11.21572
       -16.68000          -0.998879          -28.00120          -0.186771          -11.25296
       -16.66000          -1.013657          -28.20188          -0.187812          -11.29040
       -16.64000          -1.028785          -28.40552          -0.188862          -11.32806
       -16.62000          -1.044274          -28.61221          -0.189921          -11.36592
       -16.60000          -1.060136          -28.82201          -0.190988          -11.40400
       -16.58000          -1.076383          -29.03500          -0.192064          -11.44229
       -16.56000          -1.093029          -29.25126          -0.193149          -11.48079
       -16.54000          -1.110087          -29.47086          -0.194244          -11.51952
       -16.52000          -1.127572          -29.69389          -0.195347          -11.55846
       -16.50000          -1.145497          -29.92044          -0.196459          -11.59762
       -16.48000          -1.163878          -30.15059          -0.197581          -11.63701
       -16.46000          -1.182732          -30.38445          -0.198712          -11.67662
       -16.44000          -1.202074          -30.62209          -0.199853          -11.71647
       -16.42000          -1.221923          -30.86362          -0.201003          -11.75654
       -16.40000          -1.242296          -31.10913          -0.202164          -11.79683
       -16.38000          -1.263213          -31.35875          -0.203334          -11.83737
