#                                                           
#  **    **    **     ****     ****  ******     *******     
# //**  **    ****   /**/**   **/** /*////**   **/////**    
#  //****    **//**  /**//** ** /** /*   /**  **     //**   
#   //**    **  //** /** //***  /** /******  /**      /**   
#    /**   **********/**  //*   /** /*//// **/**      /**   
#    /**  /**//////**/**   /    /** /*    /**//**     **    
#    /**  /**     /**/**        /** /*******  //*******     
#    //   //      // //         //  ///////    ///////      
#                                                           
#             GPL Version 3.3.1 Revision 2132               
#                http://www.yambo-code.org                  
#
#   1          2          3          4          5          6          7          8          9
#  hw (eV)    REELS(x)   REELS(y)      Avg       Diff     Rel Diff   -2drv(x)   -2drv(y)   -Avg2Drv
     0.00000    0.28926    0.38426    0.33676   -0.09500   -0.28209  -21.29316  -29.11866  -25.20591
   0.1000E-1  0.3149     0.4189     0.3669     -.1040     -.2834     -21.29     -29.12     -25.21   
   0.2000E-1  0.3427     0.4564     0.3995     -.1137     -.2846     -22.84     -31.25     -27.04   
   0.3000E-1  0.3727     0.4970     0.4349     -.1243     -.2858     -24.46     -33.49     -28.98   
     0.04000    0.40523    0.54100    0.47311   -0.13577   -0.28697  -26.17955  -35.85696  -31.01825
     0.05000    0.44035    0.58857    0.51446   -0.14823   -0.28812  -27.97485  -38.33652  -33.15568
     0.06000    0.47826    0.63998    0.55912   -0.16172   -0.28923  -29.86851  -40.94127  -35.40489
     0.07000    0.51917    0.69548    0.60732   -0.17631   -0.29031  -31.83842  -43.66517  -37.75179
     0.08000    0.56325    0.75535    0.65930   -0.19210   -0.29136  -33.90189  -46.49873  -40.20031
     0.09000    0.61073    0.81987    0.71530   -0.20914   -0.29238  -36.04888  -49.46588  -42.75738
     0.10000    0.66181    0.88933    0.77557   -0.22752   -0.29336  -38.29123  -52.53913  -45.41518
     0.11000    0.71672    0.96405    0.84039   -0.24733   -0.29430  -40.60389  -55.73633  -48.17011
     0.12000    0.77569    1.04434    0.91002   -0.26865   -0.29521  -43.00596  -59.03008  -51.01802
     0.13000    0.83897    1.13054    0.98475   -0.29157   -0.29608  -45.49390  -62.44667  -53.97028
     0.14000    0.90679    1.22298    1.06488   -0.31619   -0.29692  -48.04613  -65.95138  -56.99876
     0.15000    0.97942    1.32201    1.15071   -0.34259   -0.29772  -50.67820  -69.56808  -60.12314
     0.16000    1.05711    1.42800    1.24255   -0.37089   -0.29849  -53.36756  -73.24449  -63.30602
     0.17000    1.14014    1.54132    1.34073   -0.40118   -0.29922  -56.13083  -77.02104  -66.57594
     0.18000    1.22878    1.66233    1.44556   -0.43355   -0.29992  -58.93471  -80.84777  -69.89124
     0.19000    1.32332    1.79144    1.55738   -0.46811   -0.30058  -61.79812  -84.76260  -73.28036
     0.20000    1.42404    1.92901    1.67653   -0.50498   -0.30120  -64.68289  -88.68923  -76.68607
     0.21000    1.53122    2.07546    1.80334   -0.54424   -0.30179  -67.60361  -92.67334  -80.13847
     0.22000    1.64517    2.23118    1.93817   -0.58601   -0.30235  -70.55058  -96.64077  -83.59567
      0.2300     1.7662     2.3966     2.0814    -0.6304    -0.3029   -73.4949  -100.6365   -87.0657
      0.2400     1.8945     2.5720     2.2333    -0.6775    -0.3034   -76.4417  -104.6323   -90.5370
      0.2500     2.0305     2.7579     2.3942    -0.7274    -0.3038   -79.3696  -108.5473   -93.9584
      0.2600     2.1744     2.9547     2.5646    -0.7802    -0.3042   -82.2448  -112.4142   -97.3295
      0.2700     2.3266     3.1627     2.7446    -0.8361    -0.3046   -85.0965  -116.2436  -100.6700
      0.2800     2.4873     3.3823     2.9348    -0.8950    -0.3050   -87.8860  -119.9248  -103.9054
      0.2900     2.6567     3.6139     3.1353    -0.9572    -0.3053   -90.6085  -123.5293  -107.0689
      0.3000     2.8352     3.8579     3.3466    -1.0226    -0.3056   -93.1930  -126.9530  -110.0730
      0.3100     3.0231     4.1145     3.5688    -1.0915    -0.3058   -95.6868  -130.2050  -112.9459
      0.3200     3.2205     4.3842     3.8024    -1.1638    -0.3061   -98.0615  -133.2854  -115.6734
      0.3300     3.4277     4.6672     4.0475    -1.2396    -0.3063  -100.2740  -136.1464  -118.2102
      0.3400     3.6449     4.9639     4.3044    -1.3189    -0.3064  -102.3151  -138.7027  -120.5089
      0.3500     3.8724     5.2744     4.5734    -1.4020    -0.3066  -104.1697  -141.0387  -122.6042
      0.3600     4.1103     5.5990     4.8546    -1.4887    -0.3067  -105.8104  -143.0228  -124.4166
      0.3700     4.3587     5.9379     5.1483    -1.5791    -0.3067  -107.2313  -144.7204  -125.9758
      0.3800     4.6179     6.2913     5.4546    -1.6733    -0.3068  -108.4136  -146.0360  -127.2248
      0.3900     4.8880     6.6592     5.7736    -1.7713    -0.3068  -109.2814  -146.9229  -128.1022
      0.4000     5.1689     7.0419     6.1054    -1.8730    -0.3068  -109.9109  -147.4665  -128.6887
      0.4100     5.4609     7.4393     6.4501    -1.9785    -0.3067  -110.1969  -147.5047  -128.8508
      0.4200     5.7638     7.8515     6.8077    -2.0877    -0.3067  -110.1874  -147.1613  -128.6744
      0.4300     6.0778     8.2784     7.1781    -2.2006    -0.3066  -109.8253  -146.2367  -128.0310
      0.4400     6.4028     8.7199     7.5613    -2.3171    -0.3064  -109.1098  -144.8248  -126.9673
      0.4500     6.7387     9.1759     7.9573    -2.4372    -0.3063  -107.9371  -142.9370  -125.4370
      0.4600     7.0854     9.6462     8.3658    -2.5608    -0.3061  -106.5825  -140.4379  -123.5102
      0.4700     7.4427    10.1305     8.7866    -2.6878    -0.3059  -104.5607  -137.3862  -120.9735
      0.4800     7.8105    10.6286     9.2195    -2.8181    -0.3057  -102.3107  -133.7630  -118.0368
      0.4900     8.1885    11.1400     9.6643    -2.9515    -0.3054   -99.6207  -129.5088  -114.5648
      0.5000     8.5765    11.6644    10.1204    -3.0879    -0.3051   -96.3591  -124.7786  -110.5689
      0.5100     8.9741    12.2013    10.5877    -3.2272    -0.3048   -92.9071  -119.3049  -106.1060
      0.5200     9.3810    12.7501    11.0656    -3.3691    -0.3045   -88.7872  -113.2967  -101.0420
      0.5300     9.7968    13.3102    11.5535    -3.5134    -0.3041   -84.3998  -106.6394   -95.5196
     0.54000   10.22102   13.88104   12.05103   -3.66002   -0.30371  -79.40260  -99.46783  -89.43521
     0.55000   10.65319   14.46179   12.55749   -3.80860   -0.30329  -74.13922  -91.55345  -82.84634
     0.56000   11.09277   15.05169   13.07223   -3.95892   -0.30285  -68.39765  -83.25593  -75.82679
     0.57000   11.53919   15.64992   13.59455   -4.11073   -0.30238  -62.25561  -74.15742  -68.20651
     0.58000   11.99184   16.25557   14.12370   -4.26373   -0.30188  -55.59898  -64.73515  -60.16707
     0.59000   12.45004   16.86769   14.65886   -4.41764   -0.30136  -48.80914  -54.66471  -51.73693
     0.60000   12.91313   17.48527   15.19920   -4.57214   -0.30081  -41.35140  -44.17428  -42.76284
     0.61000   13.38035   18.10727   15.74381   -4.72692   -0.30024  -33.70271  -33.18773  -33.44522
     0.62000   13.85094   18.73259   16.29177   -4.88165   -0.29964  -25.88277  -21.89640  -23.88959
     0.63000   14.32412   19.36010   16.84211   -5.03598   -0.29901  -17.41413   -9.88008  -13.64711
     0.64000   14.79904   19.98860   17.39382   -5.18956   -0.29836   -9.05992    2.09809   -3.48092
     0.65000   15.27487   20.61688   17.94587   -5.34202   -0.29767   -0.26703   14.57208    7.15253
     0.66000   15.75072   21.24371   18.49722   -5.49300   -0.29696    8.75475   27.16070   17.95772
     0.67000   16.22569   21.86783   19.04676   -5.64213   -0.29623   17.77652   40.09254   28.93453
     0.68000   16.69889   22.48793   19.59341   -5.78904   -0.29546   27.08424   53.06222   40.07323
     0.69000   17.16939   23.10273   20.13606   -5.93335   -0.29466   36.23969   65.91810   51.07890
     0.70000   17.63626   23.71094   20.67360   -6.07469   -0.29384   45.66201   79.23141   62.44672
     0.71000   18.09856   24.31123   21.20489   -6.21267   -0.29298   54.85513   92.16271   73.50892
      0.7200    18.5554    24.9023    21.7288    -6.3469    -0.2921    64.2011   105.0563    84.6287
      0.7300    19.0058    25.4829    22.2443    -6.4771    -0.2912    73.3191   117.6843    95.5017
      0.7400    19.4488    26.0517    22.7502    -6.6028    -0.2902    82.2069   130.0814   106.1441
      0.7500    19.8837    26.6074    23.2456    -6.7238    -0.2892    91.0183   142.4021   116.7102
      0.7600    20.3094    27.1490    23.7292    -6.8396    -0.2882    99.5632   154.0368   126.8000
      0.7700    20.7252    27.6751    24.2002    -6.9499    -0.2872   107.7272   165.4056   136.5664
      0.7800    21.1302    28.1847    24.6575    -7.0545    -0.2861   115.6618   176.2012   145.9315
      0.7900    21.5236    28.6767    25.1002    -7.1531    -0.2850   123.0235   186.3854   154.7044
      0.8000    21.9048    29.1500    25.5274    -7.2453    -0.2838   130.0814   195.8851   162.9832
      0.8100    22.2729    29.6038    25.9383    -7.3309    -0.2826   136.6046   204.8115   170.7080
      0.8200    22.6274    30.0371    26.3322    -7.4097    -0.2814   142.7462   213.0513   177.8987
      0.8300    22.9676    30.4490    26.7083    -7.4814    -0.2801   147.9334   220.1834   184.0584
      0.8400    23.2930    30.8390    27.0660    -7.5460    -0.2788   152.8934   226.8605   189.8769
      0.8500    23.6031    31.2062    27.4047    -7.6031    -0.2774   157.0895   232.1248   194.6071
      0.8600    23.8975    31.5503    27.7239    -7.6528    -0.2760   160.6744   237.0062   198.8403
      0.8700    24.1758    31.8706    28.0232    -7.6948    -0.2746   163.3075   240.5553   201.9314
      0.8800    24.4379    32.1669    28.3024    -7.7290    -0.2731   165.5210   243.1507   204.3359
      0.8900    24.6833    32.4388    28.5611    -7.7555    -0.2715   166.8160   244.8263   205.8212
      0.9000    24.9121    32.6863    28.7992    -7.7742    -0.2699   167.5398   245.2063   206.3730
      0.9100    25.1241    32.9093    29.0167    -7.7852    -0.2683   167.1995   244.9055   206.0525
      0.9200    25.3194    33.1077    29.2136    -7.7883    -0.2666   166.3221   243.3033   204.8127
      0.9300    25.4981    33.2819    29.3900    -7.7838    -0.2648   164.7170   240.5524   202.6347
      0.9400    25.6603    33.4320    29.5461    -7.7717    -0.2630   162.1240   237.0443   199.5842
      0.9500    25.8063    33.5584    29.6823    -7.7521    -0.2612   158.8834   232.0880   195.4857
      0.9600    25.9364    33.6615    29.7989    -7.7252    -0.2592   154.8770   226.2883   190.5826
      0.9700    26.0510    33.7421    29.8965    -7.6911    -0.2573   150.1468   219.8796   185.0132
      0.9800    26.1506    33.8006    29.9756    -7.6501    -0.2552   144.6909   211.5623   178.1266
      0.9900    26.2357    33.8380    30.0369    -7.6024    -0.2531   138.4348   203.0174   170.7261
      1.0000    26.3070    33.8551    30.0811    -7.5482    -0.2509   131.8362   193.5581   162.6971
      1.0100    26.3651    33.8529    30.1090    -7.4878    -0.2487   124.2068   183.1058   153.6563
      1.0200    26.4107    33.8323    30.1215    -7.4216    -0.2464   116.3090   171.8122   144.0606
      1.0300    26.4448    33.7946    30.1197    -7.3498    -0.2440   107.8417   159.9887   133.9152
      1.0400    26.4680    33.7408    30.1044    -7.2728    -0.2416    98.7639   147.0968   122.9303
      1.0500    26.4814    33.6724    30.0769    -7.1909    -0.2391    89.1496   133.8198   111.4847
      1.0600    26.4859    33.5905    30.0382    -7.1046    -0.2365    79.3459   120.3921    99.8690
      1.0700    26.4824    33.4967    29.9895    -7.0142    -0.2339    69.3886   106.1238    87.7562
     1.08000   26.47201   33.39217   29.93209   -6.92016   -0.23120   58.70760   91.17036   74.93898
     1.09000   26.45573   33.27856   29.86715   -6.82283   -0.22844   48.10342   76.75185   62.42764
     1.10000   26.43464   33.15728   29.79596   -6.72264   -0.22562   37.11708   61.41674   49.26691
     1.11000   26.40984   33.02985   29.71985   -6.62001   -0.22275   26.28363   46.38736   36.33549
     1.12000   26.38241   32.89779   29.64010   -6.51538   -0.21982   15.56399   31.20428   23.38414
     1.13000   26.35342   32.76261   29.55801   -6.40919   -0.21683    4.42500   15.79269   10.10885
     1.14000   26.32398   32.62584   29.47491   -6.30186   -0.21380   -6.06538    0.99182   -2.53678
     1.15000   26.29516   32.48898   29.39207   -6.19382   -0.21073  -16.97544  -14.11441  -15.54492
     1.16000   26.26803   32.35352   29.31078   -6.08550   -0.20762  -27.42740  -28.22848  -27.82794
     1.17000   26.24364   32.22089   29.23227   -5.97726   -0.20447  -37.07849  -42.72418  -39.90134
     1.18000   26.22295   32.09254   29.15775   -5.86958   -0.20130  -46.99772  -56.15312  -51.57542
     1.19000   26.20697   31.96979   29.08838   -5.76283   -0.19811  -56.42015  -69.35216  -62.88615
     1.20000   26.19663   31.85398   29.02531   -5.65736   -0.19491  -64.96442  -81.71097  -73.33769
     1.21000   26.19278   31.74635   28.96956   -5.55356   -0.19170  -73.58478  -93.84061  -83.71269
      1.2200    26.1963    31.6481    28.9222    -5.4518    -0.1885   -80.7945  -104.6361   -92.7153
      1.2300    26.2079    31.5603    28.8841    -5.3524    -0.1853   -88.3867  -114.8607  -101.6237
      1.2400    26.2283    31.4840    28.8562    -5.2557    -0.1821   -94.5665  -124.2068  -109.3867
      1.2500    26.2582    31.4201    28.8392    -5.1619    -0.1790  -100.1741  -132.9425  -116.5583
      1.2600    26.2981    31.3695    28.8338    -5.0714    -0.1759  -105.3240  -140.1904  -122.7572
      1.2700    26.3486    31.3330    28.8408    -4.9844    -0.1728  -109.5583  -146.7898  -128.1741
      1.2800    26.4100    31.3111    28.8605    -4.9011    -0.1698  -112.7245  -151.9778  -132.3512
      1.2900    26.4826    31.3044    28.8935    -4.8218    -0.1669  -115.4711  -156.8607  -136.1659
      1.3000    26.5668    31.3134    28.9401    -4.7465    -0.1640  -117.0719  -159.6435  -138.3577
    1.310      26.66      31.34      29.00     -4.676     -.1612     -118.0     -162.1     -140.1   
    1.320      26.77      31.38      29.07     -4.609     -.1585     -118.1     -163.0     -140.6   
    1.330      26.89      31.44      29.16     -4.547     -.1559     -117.0     -163.1     -140.1   
    1.340      27.02      31.51      29.27     -4.489     -.1534     -115.6     -161.8     -138.7   
    1.350      27.16      31.60      29.38     -4.437     -.1510     -113.0     -159.9     -136.4   
    1.360      27.32      31.71      29.51     -4.389     -.1487     -109.6     -156.1     -132.8   
    1.370      27.48      31.83      29.66     -4.345     -.1465     -105.6     -152.0     -128.8   
    1.380      27.66      31.96      29.81     -4.306     -.1444     -100.5     -146.6     -123.6   
      1.3900    27.8445    32.1164    29.9804    -4.2719    -0.1425   -94.9099  -140.2285  -117.5692
      1.4000    28.0396    32.2818    30.1607    -4.2422    -0.1407   -88.3104  -132.7517  -110.5311
      1.4100    28.2436    32.4605    30.3521    -4.2169    -0.1389   -81.3676  -124.5882  -102.9780
      1.4200    28.4557    32.6517    30.5537    -4.1960    -0.1373   -73.5475  -115.6618   -94.6047
      1.4300    28.6752    32.8544    30.7648    -4.1792    -0.1358   -65.3451  -105.4372   -85.3911
     1.44000   28.90121   33.06773   30.98447   -4.16651   -0.13447  -56.07549  -95.06130  -75.56840
     1.45000   29.13284   33.29051   31.21167   -4.15767   -0.13321  -47.11160  -83.69462  -65.40311
     1.46000   29.36917   33.52166   31.44541   -4.15249   -0.13205  -36.92634  -71.71645  -54.32140
     1.47000   29.60919   33.75998   31.68458   -4.15078   -0.13100  -26.97028  -59.43380  -43.20204
     1.48000   29.85191   34.00424   31.92808   -4.15232   -0.13005  -16.21249  -46.46310  -31.33780
     1.49000   30.09626   34.25314   32.17470   -4.15689   -0.12920   -5.37867  -33.11124  -19.24496
     1.50000   30.34114   34.50536   32.42325   -4.16422   -0.12843    5.53132  -19.68388   -7.07628
     1.51000   30.58546   34.75953   32.67250   -4.17407   -0.12775   16.93729   -5.79835    5.56947
     1.52000   30.82810   35.01429   32.92119   -4.18619   -0.12716   27.88549    8.46864   18.17707
     1.53000   31.06794   35.26820   33.16807   -4.20026   -0.12664   39.32914   22.04873   30.68893
     1.54000   31.30384   35.51991   33.41188   -4.21606   -0.12618   50.65928   36.39228   43.52578
     1.55000   31.53469   35.76797   33.65133   -4.23329   -0.12580   61.72266   50.20211   55.96238
     1.56000   31.75935   36.01102   33.88519   -4.25167   -0.12547   72.63197   64.16333   68.39765
     1.57000   31.97676   36.24766   34.11221   -4.27090   -0.12520   83.57918   77.51387   80.54652
     1.58000   32.18581   36.47654   34.33118   -4.29074   -0.12498   93.91691   90.94147   92.42919
      1.5900    32.3855    36.6963    34.5409    -4.3109    -0.1248   103.7600   103.7600   103.7600
      1.6000    32.5747    36.9057    34.7402    -4.3310    -0.1247   114.0597   115.9670   115.0133
    1.610      32.75      37.10      34.93     -4.351     -.1246      122.9      128.3      125.6   
    1.620      32.92      37.29      35.10     -4.370     -.1245      131.7      139.2      135.5   
    1.630      33.07      37.46      35.27     -4.389     -.1245      139.8      150.1      145.0   
    1.640      33.21      37.62      35.41     -4.407     -.1244      147.7      160.1      153.9   
    1.650      33.33      37.76      35.54     -4.423     -.1244      154.7      169.4      162.1   
    1.660      33.44      37.88      35.66     -4.438     -.1245      160.9      178.1      169.5   
    1.670      33.53      37.98      35.76     -4.451     -.1245      166.6      185.4      176.0   
    1.680      33.61      38.07      35.84     -4.462     -.1245      171.7      192.6      182.2   
    1.690      33.67      38.14      35.90     -4.472     -.1246      175.9      198.4      187.2   
    1.700      33.71      38.19      35.95     -4.479     -.1246      179.2      203.7      191.5   
    1.710      33.73      38.21      35.97     -4.483     -.1246      182.1      207.7      194.9   
    1.720      33.73      38.22      35.98     -4.485     -.1247      184.1      210.8      197.4   
    1.730      33.72      38.21      35.96     -4.484     -.1247      185.2      213.5      199.4   
    1.740      33.69      38.17      35.93     -4.481     -.1247      185.6      214.5      200.0   
    1.750      33.64      38.11      35.87     -4.475     -.1247      185.2      215.3      200.3   
    1.760      33.57      38.03      35.80     -4.465     -.1247      184.2      214.5      199.4   
    1.770      33.48      37.93      35.71     -4.453     -.1247      182.3      213.5      197.9   
    1.780      33.37      37.81      35.59     -4.437     -.1247      179.7      211.1      195.4   
    1.790      33.25      37.67      35.46     -4.418     -.1246      176.5      207.8      192.1   
    1.800      33.11      37.50      35.31     -4.397     -.1245      172.7      204.1      188.4   
    1.810      32.95      37.32      35.13     -4.372     -.1244      167.7      199.1      183.4   
    1.820      32.77      37.12      34.94     -4.343     -.1243      162.7      194.1      178.4   
    1.830      32.58      36.89      34.74     -4.312     -.1241      156.9      187.6      172.2   
    1.840      32.37      36.65      34.51     -4.278     -.1239      150.5      180.8      165.7   
    1.850      32.15      36.39      34.27     -4.240     -.1237      144.0      173.2      158.6   
    1.860      31.91      36.11      34.01     -4.200     -.1235      136.4      165.5      150.9   
    1.870      31.66      35.82      33.74     -4.157     -.1232      128.7      156.6      142.6   
