#                                                                     
#                                                                     
# Y88b    /   e           e    e      888~~\    ,88~-_                
#  Y88b  /   d8b         d8b  d8b     888   |  d888   \               
#   Y88b/   /Y88b       d888bdY88b    888 _/  88888    |              
#    Y8Y   /  Y88b     / Y88Y Y888b   888  \  88888    |              
#     Y   /____Y88b   /   YY   Y888b  888   |  Y888   /               
#    /   /      Y88b /          Y888b 888__/    `88_-~                
#                                                                     
#                                                                     
# Version 5.2.0 Revision 23129 Hash (prev commit) 3a51862bc           
#            Branch is phys-levels_degeneracy                         
#                   MPI+HDF5_IO Build                                 
#                http://www.yambo-code.eu                             
#
# Absorption @ Q(1):   1.00000000      0.00000000      0.00000000    [q->0 direction]
#
# [GEN] GF Energies                               : Slater exchange(X)+Perdew & Zunger(C)
# [GEN] Green`s Function                          : Retarded
#
# [GEN] Gauge                                     : Length
# [GEN] [r,Vnl] included                          : yes
#
# DIP band range                                  :   1   8
# DIP band range limits                           :   4   5
# DIP e/h energy range                            :  -1.00000000     -1.00000000    [eV]
# RL vectors in the sum                           :   387
# [r,Vnl] included                                : yes
# Bands ordered                                   : yes
# Direct v evaluation                             : no
# Approach used                                   : G-space v
# Dipoles computed                                : R V P
# Wavefunctions                                   : Slater exchange(X)+Perdew & Zunger(C)
#
# Diamagnetic term                                
# Ao                                              :   8.52741909    [nel]
#
#    E[1] [eV]          Im(eps)            Re(eps)
#
        0.000000           0.000000           59.63441
        0.010010           0.013809           59.63505
        0.020020           0.027620           59.63713
        0.030030           0.041436           59.64056
        0.040040           0.055258           59.64536
        0.050050           0.069089           59.65158
        0.060060           0.082931           59.65913
        0.070070           0.096785           59.66806
        0.080080           0.110655           59.67840
        0.090090           0.124542           59.69011
        0.100100           0.138449           59.70324
        0.110110           0.152377           59.71767
        0.120120           0.166330           59.73355
        0.130130           0.180309           59.75080
        0.140140           0.194316           59.76947
        0.150150           0.208353           59.78951
        0.160160           0.222424           59.81099
        0.170170           0.236530           59.83382
        0.180180           0.250673           59.85808
        0.190190           0.264856           59.88372
        0.200200           0.279082           59.91081
        0.210210           0.293351           59.93931
        0.220220           0.307667           59.96922
        0.230230           0.322033           60.00055
        0.240240           0.336450           60.03338
        0.250250           0.350921           60.06758
        0.260260           0.365449           60.10326
        0.270270           0.380035           60.14033
        0.280280           0.394683           60.17891
        0.290290           0.409395           60.21894
        0.300300           0.424173           60.26041
        0.310310           0.439020           60.30338
        0.320320           0.453939           60.34787
        0.330330           0.468932           60.39378
        0.340340           0.484002           60.44123
        0.350350           0.499152           60.49014
        0.360360           0.514384           60.54062
        0.370370           0.529702           60.59256
        0.380380           0.545107           60.64604
        0.390390           0.560603           60.70109
        0.400400           0.576193           60.75766
        0.410410           0.591880           60.81579
        0.420420           0.607666           60.87550
        0.430430           0.623556           60.93679
        0.440440           0.639551           60.99962
        0.450450           0.655655           61.06406
        0.460460           0.671871           61.13015
        0.470470           0.688203           61.19783
        0.480480           0.704653           61.26714
        0.490490           0.721226           61.33807
        0.500500           0.737923           61.41069
        0.510511           0.754751           61.48497
        0.520521           0.771710           61.56093
        0.530531           0.788805           61.63854
        0.540541           0.806040           61.71791
        0.550551           0.823420           61.79897
        0.560561           0.840945           61.88176
        0.570571           0.858622           61.96634
        0.580581           0.876455           62.05264
        0.590591           0.894446           62.14071
        0.600601           0.912601           62.23060
        0.610611           0.930924           62.32231
        0.620621           0.949419           62.41583
        0.630631           0.968089           62.51122
        0.640641           0.986941           62.60848
        0.650651           1.005977           62.70759
        0.660661           1.025204           62.80857
        0.670671           1.044626           62.91153
        0.680681           1.064247           63.01640
        0.690691           1.084074           63.12323
        0.700701           1.104109           63.23202
        0.710711           1.124361           63.34284
        0.720721           1.144832           63.45565
        0.730731           1.165530           63.57052
        0.740741           1.186459           63.68745
        0.750751           1.207626           63.80648
        0.760761           1.229037           63.92759
        0.770771           1.250696           64.05087
        0.780781           1.272611           64.17630
        0.790791           1.294788           64.30392
        0.800801           1.317234           64.43372
        0.810811           1.339954           64.56578
        0.820821           1.362957           64.70010
        0.830831           1.386250           64.83673
        0.840841           1.409837           64.97568
        0.850851           1.433729           65.11697
        0.860861           1.457934           65.26062
        0.870871           1.482455           65.40671
        0.880881           1.507305           65.55522
        0.890891           1.532491           65.70621
        0.900901           1.558020           65.85976
        0.910911           1.583902           66.01583
        0.920921           1.610146           66.17442
        0.930931           1.636763           66.33566
        0.940941           1.663756           66.49957
        0.950951           1.691143           66.66617
        0.960961           1.718929           66.83549
        0.970971           1.747128           67.00754
        0.980981           1.775746           67.18244
        0.990991           1.804796           67.36014
        1.001001           1.834291           67.54082
        1.011011           1.864242           67.72442
        1.021021           1.894660           67.91092
        1.031031           1.925557           68.10049
        1.041041           1.956948           68.29310
        1.051051           1.988845           68.48889
        1.061061           2.021261           68.68783
        1.071071           2.054211           68.89003
        1.081081           2.087711           69.09546
        1.091091           2.121772           69.30420
        1.101101           2.156412           69.51637
        1.111111           2.191647           69.73199
        1.121121           2.227494           69.95107
        1.131131           2.263970           70.17372
        1.141141           2.301089           70.39999
        1.151151           2.338874           70.62995
        1.161161           2.377344           70.86362
        1.171171           2.416513           71.10120
        1.181181           2.456409           71.34263
        1.191191           2.497047           71.58801
        1.201201           2.538453           71.83739
        1.211211           2.580647           72.09091
        1.221221           2.623654           72.34865
        1.231231           2.667495           72.61063
        1.241241           2.712198           72.87696
        1.251251           2.757787           73.14766
        1.261261           2.804295           73.42294
        1.271271           2.851743           73.70279
        1.281281           2.900161           73.98737
        1.291291           2.949587           74.27671
        1.301301           3.000042           74.57095
        1.311311           3.051564           74.87021
        1.321321           3.104188           75.17450
        1.331331           3.157947           75.48408
        1.341341           3.212879           75.79888
        1.351351           3.269021           76.11922
        1.361361           3.326417           76.44500
        1.371371           3.385104           76.77647
        1.381381           3.445130           77.11372
        1.391391           3.506534           77.45695
        1.401401           3.569370           77.80614
        1.411411           3.633683           78.16162
        1.421421           3.699528           78.52338
        1.431431           3.766953           78.89165
        1.441441           3.836019           79.26661
        1.451451           3.906788           79.64825
        1.461461           3.979312           80.03690
        1.471471           4.053661           80.43270
        1.481481           4.129905           80.83572
        1.491491           4.208106           81.24629
        1.501501           4.288344           81.66454
        1.511511           4.370696           82.09069
        1.521521           4.455247           82.52486
        1.531531           4.542073           82.96732
        1.541541           4.631271           83.41822
        1.551551           4.722930           83.87791
        1.561561           4.817152           84.34660
        1.571571           4.914038           84.82444
        1.581581           5.013702           85.31174
        1.591591           5.116257           85.80869
        1.601601           5.221825           86.31567
        1.611611           5.330530           86.83302
        1.621622           5.442512           87.36079
        1.631632           5.557907           87.89957
        1.641642           5.676877           88.44949
        1.651652           5.799573           89.01094
        1.661662           5.926159           89.58427
        1.671672           6.056816           90.16991
        1.681682           6.191737           90.76811
        1.691692           6.331124           91.37926
        1.701702           6.475179           92.00398
        1.711712           6.624133           92.64250
        1.721722           6.778227           93.29535
        1.731732           6.937711           93.96307
        1.741742           7.102864           94.64595
        1.751752           7.273957           95.34458
        1.761762           7.451313           96.05965
        1.771772           7.635257           96.79163
        1.781782           7.826138           97.54111
        1.791792           8.024325           98.30869
        1.801802           8.230236           99.09509
        1.811812           8.444280           99.90097
        1.821822           8.666920           100.7270
        1.831832           8.898675           101.5739
        1.841842           9.140048           102.4427
        1.851852           9.391617           103.3340
        1.861862           9.654004           104.2488
        1.871872           9.927861           105.1880
        1.881882           10.21392           106.1526
        1.891892           10.51295           107.1437
        1.901902           10.82579           108.1623
        1.911912           11.15334           109.2096
        1.921922           11.49659           110.2867
        1.931932           11.85663           111.3951
        1.941942           12.23461           112.5360
        1.951952           12.63180           113.7110
        1.961962           13.04962           114.9214
        1.971972           13.48955           116.1692
        1.981982           13.95327           117.4557
        1.991992           14.44262           118.7830
        2.002002           14.95959           120.1530
        2.012012           15.50641           121.5678
        2.022022           16.08552           123.0293
        2.032032           16.69961           124.5400
        2.042042           17.35166           126.1023
        2.052052           18.04497           127.7189
        2.062062           18.78331           129.3923
        2.072072           19.57071           131.1258
        2.082082           20.41179           132.9220
        2.092092           21.31169           134.7843
        2.102102           22.27617           136.7160
        2.112112           23.31168           138.7209
        2.122122           24.42559           140.8024
        2.132132           25.62610           142.9642
        2.142142           26.92262           145.2105
        2.152152           28.32568           147.5449
        2.162162           29.84742           149.9717
        2.172172           31.50154           152.4943
        2.182182           33.30380           155.1165
        2.192192           35.27224           157.8414
        2.202202           37.42747           160.6711
        2.212212           39.79310           163.6077
        2.222222           42.39657           166.6508
        2.232232           45.26905           169.7979
        2.242242           48.44670           173.0445
        2.252252           51.97070           176.3812
        2.262262           55.88847           179.7935
        2.272272           60.25354           183.2591
        2.282282           65.12678           186.7458
        2.292292           70.57527           190.2075
        2.302302           76.67297           193.5805
        2.312312           83.49706           196.7774
        2.322322           91.12557           199.6805
        2.332332           99.62984           202.1354
        2.342342           109.0626           203.9415
        2.352352           119.4421           204.8469
        2.362362           130.7260           204.5475
        2.372372           142.7806           202.6936
        2.382382           155.3432           198.9157
        2.392392           167.9890           192.8721
        2.402402           180.1153           184.3263
        2.412412           190.9670           173.2399
        2.422422           199.7193           159.8682
        2.432432           205.6203           144.8044
        2.442442           208.1591           128.9443
        2.452452           207.2021           113.3462
        2.462462           203.0320           99.03821
        2.472472           196.2741           86.83072
        2.482482           187.7435           77.21198
        2.492492           178.2789           70.33722
        2.502502           168.6185           66.09693
        2.512512           159.3358           64.21217
        2.522522           150.8313           64.32687
        2.532532           143.3557           66.07418
        2.542542           137.0466           69.11636
        2.552552           131.9648           73.16291
        2.562562           128.1252           77.97407
        2.572572           125.5201           83.35666
        2.582582           124.1348           89.15564
        2.592592           123.9591           95.24432
        2.602602           124.9933           101.5151
        2.612612           127.2534           107.8692
        2.622622           130.7724           114.2081
        2.632632           135.6007           120.4228
        2.642642           141.8055           126.3849
        2.652653           149.4658           131.9335
        2.662663           158.6671           136.8638
        2.672673           169.4875           140.9128
        2.682683           181.9802           143.7461
        2.692693           196.1429           144.9468
        2.702703           211.8791           144.0127
        2.712713           228.9423           140.3695
        2.722723           246.8782           133.4104
        2.732733           264.9668           122.5766
        2.742743           282.2003           107.4794
        2.752753           297.3217           88.05930
        2.762763           308.9636           64.73357
        2.772773           315.8780           38.47542
        2.782783           317.2149           10.74547
        2.792793           312.7396          -16.72773
        2.802803           302.8964          -42.27349
        2.812813           288.6857          -64.57516
        2.822823           271.4135          -82.84729
        2.832833           252.4183          -96.84591
        2.842843           232.8700          -106.7585
        2.852853           213.6650          -113.0472
        2.862863           195.4133          -116.2988
        2.872873           178.4734          -117.1154
        2.882883           163.0148          -116.0490
        2.892893           149.0726          -113.5714
        2.902903           136.6004          -110.0677
        2.912913           125.5025          -105.8413
        2.922923           115.6617          -101.1253
        2.932933           106.9534          -96.09508
        2.942943           99.25618          -90.88082
        2.952953           92.45608          -85.57688
        2.962963           86.45025          -80.25080
        2.972973           81.14650          -74.94930
        2.982983           76.46413          -69.70475
        2.992993           72.33256          -64.53702
        3.003003           68.69096          -59.45835
        3.013013           65.48666          -54.47442
        3.023023           62.67472          -49.58658
        3.033033           60.21661          -44.79276
        3.043043           58.07973          -40.08878
        3.053053           56.23646          -35.46844
        3.063063           54.66374          -30.92452
        3.073073           53.34237          -26.44902
        3.083083           52.25687          -22.03335
        3.093093           51.39487          -17.66845
        3.103103           50.74693          -13.34501
        3.113113           50.30650          -9.053873
        3.123123           50.06956          -4.785388
        3.133133           50.03459          -0.530413
        3.143143           50.20269           3.720529
        3.153153           50.57746           7.976569
        3.163163           51.16511           12.24669
        3.173173           51.97469           16.53953
        3.183183           53.01826           20.86344
        3.193193           54.31108           25.22582
        3.203203           55.87209           29.63366
        3.213213           57.72425           34.09234
        3.223223           59.89510           38.60594
        3.233233           62.41725           43.17591
