#                                                           
#  __  __   ________   ___ __ __    _______   ______        
# /_/\/_/\ /_______/\ /__//_//_/\ /_______/\ /_____/\       
# \ \ \ \ \\::: _  \ \\::\| \| \ \\::: _  \ \\:::_ \ \      
#  \:\_\ \ \\::(_)  \ \\:.      \ \\::(_)  \/_\:\ \ \ \     
#   \::::_\/ \:: __  \ \\:.\-/\  \ \\::  _  \ \\:\ \ \ \    
#     \::\ \  \:.\ \  \ \\. \  \  \ \\::(_)  \ \\:\_\ \ \   
#      \__\/   \__\/\__\/ \__\/ \__\/ \_______\/ \_____\/   
#                                                           
#                                                           
#        Version 4.2.0 Revision 14428 Hash 698a636          
#                  MPI+SLK+OpenMP Build                     
#                http://www.yambo-code.org                  
#
# Absorption @ Q(1) [q->0 direction] :0.1000E-4  0.000     0.000   
#
#
# - Energies      are COHSEX
# - Wavefunctions are Slater exchange(X)+Perdew & Zunger(C)
#
# - The Green`s function is Retarded -
# - Using the Length Gauge -
# - [r,Vnl] *is* included -
#
#   BSK|Identifier              :44
#      |Dimension               :72
#      |Bands                   :2 - 7
#      |Exchange           [res]: yes
#      |Correlation        [res]: yes
#      |Kernel`s coupling       : no
#      |Exchange           [cpl]: no
#      |Correlation        [cpl]: no
#      |W interaction is bare   : no
#      |ALDA kernel in R-space  : no
#      |RL vectors    [exchange]:531
#      |RL vectors [correlation]:59
#      |E/h energy range    [ev]:-1.000000 - -1.000000
#      |Coupling range     [o/o]: 100.0000 -  100.0000
#    W |Interaction is diagonal : no
#      |Matrix size             :59
#      |Bands                   :1 - 8
#      |e/h energy range    [ev]:-1.000000 - -1.000000
#      |Poles              [o/o]: 100.0000
#      |RL vectors in the sum   :387
#      |[r,Vnl] included        : yes
#      |Field direction         :0.1000E-4  0.000000  0.000000
#      |Coulomb Cutoff          :none
#      |xc-Kernel               :none
#   RIM|RL components      [col]:0
#      |Random points      [col]:0
#  
#   Haydock|Accuracy (requested) [o/o]:  0.02000
#          |Accuracy (reached)   [o/o]:  0.01585
#          |Iteration                 :23
#
#    E/ev[1]      EPS-Im[2]    EPS-Re[3]    EPSo-Im[4]   EPSo-Re[5]   EPS`-Im[6]   EPS`-Re[7]
#
     0.00000      0.00000     42.70978      0.00000     36.43351      0.00000     42.70978
   0.2004E-1    0.1082E-1     42.71       0.6680E-2     36.43       0.1082E-1     42.71   
   0.4008E-1    0.2165E-1     42.71       0.1336E-1     36.44       0.2165E-1     42.71   
   0.6012E-1    0.3249E-1     42.72       0.2005E-1     36.44       0.3249E-1     42.72   
   0.8016E-1    0.4333E-1     42.73       0.2673E-1     36.44       0.4333E-1     42.73   
   0.1002       0.5419E-1     42.74       0.3343E-1     36.45       0.5419E-1     42.74   
   0.1202       0.6507E-1     42.75       0.4013E-1     36.46       0.6507E-1     42.75   
     0.14028      0.07597     42.76285      0.04685     36.46628      0.07597     42.76285
     0.16032      0.08689     42.77913      0.05357     36.47631      0.08689     42.77913
     0.18036      0.09784     42.79759      0.06031     36.48769      0.09784     42.79759
     0.20040      0.10882     42.81824      0.06706     36.50043      0.10882     42.81824
     0.22044      0.11984     42.84109      0.07383     36.51453      0.11984     42.84109
     0.24048      0.13090     42.86615      0.08061     36.52997      0.13090     42.86615
     0.26052      0.14200     42.89342      0.08742     36.54676      0.14200     42.89342
     0.28056      0.15314     42.92291      0.09424     36.56493      0.15314     42.92291
     0.30060      0.16434     42.95463      0.10109     36.58445      0.16434     42.95463
     0.32064      0.17559     42.98860      0.10796     36.60538      0.17559     42.98860
     0.34068      0.18689     43.02482      0.11486     36.62765      0.18689     43.02482
     0.36072      0.19826     43.06331      0.12179     36.65132      0.19826     43.06331
     0.38076      0.20969     43.10407      0.12875     36.67636      0.20969     43.10407
     0.40080      0.22120     43.14713      0.13573     36.70283      0.22120     43.14713
     0.42084      0.23277     43.19249      0.14275     36.73066      0.23277     43.19249
     0.44088      0.24442     43.24017      0.14981     36.75991      0.24442     43.24017
     0.46092      0.25616     43.29018      0.15690     36.79058      0.25616     43.29018
     0.48096      0.26798     43.34256      0.16403     36.82268      0.26798     43.34256
     0.50100      0.27989     43.39730      0.17120     36.85619      0.27989     43.39730
     0.52104      0.29190     43.45443      0.17842     36.89116      0.29190     43.45443
     0.54108      0.30400     43.51397      0.18568     36.92757      0.30400     43.51397
     0.56112      0.31621     43.57593      0.19298     36.96543      0.31621     43.57593
     0.58116      0.32853     43.64035      0.20033     37.00476      0.32853     43.64035
     0.60120      0.34096     43.70724      0.20774     37.04554      0.34096     43.70724
     0.62124      0.35350     43.77662      0.21519     37.08786      0.35350     43.77662
     0.64128      0.36617     43.84852      0.22270     37.13164      0.36617     43.84852
     0.66132      0.37897     43.92297      0.23027     37.17691      0.37897     43.92297
     0.68136      0.39190     43.99998      0.23789     37.22372      0.39190     43.99998
     0.70140      0.40497     44.07959      0.24558     37.27206      0.40497     44.07959
     0.72144      0.41819     44.16182      0.25333     37.32195      0.41819     44.16182
     0.74148      0.43155     44.24671      0.26114     37.37340      0.43155     44.24671
     0.76152      0.44507     44.33429      0.26903     37.42640      0.44507     44.33429
     0.78156      0.45875     44.42457      0.27698     37.48099      0.45875     44.42457
     0.80160      0.47259     44.51760      0.28501     37.53718      0.47259     44.51760
     0.82164      0.48661     44.61342      0.29311     37.59497      0.48661     44.61342
     0.84168      0.50081     44.71206      0.30128     37.65440      0.50081     44.71206
     0.86172      0.51520     44.81354      0.30954     37.71547      0.51520     44.81354
     0.88176      0.52978     44.91792      0.31788     37.77819      0.52978     44.91792
     0.90180      0.54455     45.02523      0.32631     37.84259      0.54455     45.02523
     0.92184      0.55954     45.13550      0.33482     37.90870      0.55954     45.13550
     0.94188      0.57474     45.24879      0.34343     37.97651      0.57474     45.24879
     0.96192      0.59015     45.36514      0.35213     38.04601      0.59015     45.36514
     0.98196      0.60580     45.48457      0.36093     38.11731      0.60580     45.48457
     1.00200      0.62169     45.60717      0.36983     38.19036      0.62169     45.60717
     1.02204      0.63782     45.73295      0.37883     38.26520      0.63782     45.73295
     1.04208      0.65421     45.86198      0.38793     38.34184      0.65421     45.86198
     1.06212      0.67086     45.99429      0.39715     38.42033      0.67086     45.99429
     1.08216      0.68778     46.12997      0.40648     38.50065      0.68778     46.12997
     1.10220      0.70498     46.26904      0.41593     38.58285      0.70498     46.26904
     1.12224      0.72248     46.41158      0.42549     38.66697      0.72248     46.41158
     1.14228      0.74027     46.55762      0.43518     38.75300      0.74027     46.55762
     1.16232      0.75838     46.70726      0.44500     38.84097      0.75838     46.70726
     1.18236      0.77681     46.86053      0.45495     38.93091      0.77681     46.86053
     1.20240      0.79557     47.01751      0.46503     39.02287      0.79557     47.01751
     1.22244      0.81468     47.17827      0.47526     39.11686      0.81468     47.17827
     1.24248      0.83415     47.34287      0.48563     39.21290      0.83415     47.34287
     1.26252      0.85398     47.51139      0.49614     39.31099      0.85398     47.51139
     1.28257      0.87420     47.68390      0.50681     39.41125      0.87420     47.68390
     1.30261      0.89481     47.86048      0.51763     39.51363      0.89481     47.86048
     1.32265      0.91584     48.04121      0.52862     39.61819      0.91584     48.04121
     1.34269      0.93728     48.22616      0.53977     39.72496      0.93728     48.22616
     1.36273      0.95917     48.41543      0.55110     39.83395      0.95917     48.41543
     1.38277      0.98151     48.60911      0.56260     39.94526      0.98151     48.60911
     1.40281      1.00432     48.80729      0.57429     40.05885      1.00432     48.80729
     1.42285      1.02762     49.01005      0.58616     40.17482      1.02762     49.01005
     1.44289      1.05142     49.21751      0.59822     40.29317      1.05142     49.21751
     1.46293      1.07575     49.42975      0.61049     40.41394      1.07575     49.42975
     1.48297      1.10062     49.64690      0.62296     40.53717      1.10062     49.64690
     1.50301      1.12605     49.86905      0.63564     40.66294      1.12605     49.86905
     1.52305      1.15207     50.09632      0.64854     40.79123      1.15207     50.09632
     1.54309      1.17869     50.32883      0.66166     40.92213      1.17869     50.32883
     1.56313      1.20593     50.56668      0.67502     41.05569      1.20593     50.56668
     1.58317      1.23383     50.81004      0.68861     41.19191      1.23383     50.81004
     1.60321      1.26240     51.05900      0.70245     41.33089      1.26240     51.05900
     1.62325      1.29167     51.31372      0.71655     41.47261      1.29167     51.31372
     1.64329      1.32167     51.57433      0.73091     41.61721      1.32167     51.57433
     1.66333      1.35242     51.84098      0.74553     41.76469      1.35242     51.84098
     1.68337      1.38395     52.11382      0.76044     41.91510      1.38395     52.11382
     1.70341      1.41630     52.39301      0.77563     42.06851      1.41630     52.39301
     1.72345      1.44950     52.67871      0.79113     42.22501      1.44950     52.67871
     1.74349      1.48358     52.97110      0.80692     42.38461      1.48358     52.97110
     1.76353      1.51857     53.27033      0.82304     42.54738      1.51857     53.27033
     1.78357      1.55451     53.57663      0.83948     42.71342      1.55451     53.57663
     1.80361      1.59144     53.89015      0.85626     42.88275      1.59144     53.89015
     1.82365      1.62941     54.21111      0.87338     43.05544      1.62941     54.21111
     1.84369      1.66844     54.53971      0.89087     43.23164      1.66844     54.53971
     1.86373      1.70860     54.87616      0.90873     43.41133      1.70860     54.87616
     1.88377      1.74992     55.22071      0.92697     43.59460      1.74992     55.22071
     1.90381      1.79245     55.57355      0.94561     43.78154      1.79245     55.57355
     1.92385      1.83625     55.93497      0.96467     43.97224      1.83625     55.93497
     1.94389      1.88138     56.30520      0.98414     44.16680      1.88138     56.30520
     1.96393      1.92788     56.68452      1.00406     44.36526      1.92788     56.68452
     1.98397      1.97582     57.07320      1.02443     44.56775      1.97582     57.07320
     2.00401      2.02526     57.47152      1.04527     44.77431      2.02526     57.47152
     2.02405      2.07628     57.87978      1.06660     44.98508      2.07628     57.87978
     2.04409      2.12894     58.29831      1.08844     45.20016      2.12894     58.29831
     2.06413      2.18331     58.72743      1.11080     45.41964      2.18331     58.72743
     2.08417      2.23949     59.16749      1.13370     45.64359      2.23949     59.16749
     2.10421      2.29755     59.61884      1.15716     45.87217      2.29755     59.61884
     2.12425      2.35758     60.08189      1.18121     46.10547      2.35758     60.08189
     2.14429      2.41967     60.55700      1.20585     46.34364      2.41967     60.55700
     2.16433      2.48394     61.04460      1.23113     46.58676      2.48394     61.04460
     2.18437      2.55048     61.54513      1.25705     46.83496      2.55048     61.54513
     2.20441      2.61940     62.05902      1.28365     47.08838      2.61940     62.05902
     2.22445      2.69083     62.58676      1.31095     47.34716      2.69083     62.58676
     2.24449      2.76490     63.12887      1.33898     47.61143      2.76490     63.12887
     2.26453      2.84173     63.68585      1.36776     47.88133      2.84173     63.68585
     2.28457      2.92149     64.25828      1.39733     48.15707      2.92149     64.25828
     2.30461      3.00431     64.84673      1.42772     48.43872      3.00431     64.84673
     2.32465      3.09036     65.45180      1.45896     48.72652      3.09036     65.45180
     2.34469      3.17983     66.07416      1.49108     49.02057      3.17983     66.07416
     2.36473      3.27289     66.71447      1.52413     49.32108      3.27289     66.71447
     2.38477      3.36975     67.37347      1.55813     49.62830      3.36975     67.37347
     2.40481      3.47063     68.05191      1.59313     49.94234      3.47063     68.05191
     2.42485      3.57575     68.75058      1.62918     50.26343      3.57575     68.75058
     2.44489      3.68536     69.47032      1.66631     50.59177      3.68536     69.47032
     2.46493      3.79972     70.21204      1.70458     50.92757      3.79972     70.21204
     2.48497      3.91913     70.97669      1.74403     51.27109      3.91913     70.97669
     2.50501      4.04388     71.76527      1.78471     51.62255      4.04388     71.76527
     2.52505      4.17431     72.57883      1.82669     51.98219      4.17431     72.57883
     2.54509      4.31078     73.41850      1.87002     52.35026      4.31078     73.41850
     2.56513      4.45366     74.28549      1.91476     52.72706      4.45366     74.28549
     2.58517      4.60337     75.18106      1.96098     53.11285      4.60337     75.18106
     2.60521      4.76037     76.10657      2.00874     53.50795      4.76037     76.10657
     2.62525      4.92513     77.06345      2.05813     53.91267      4.92513     77.06345
     2.64529      5.09820     78.05325      2.10921     54.32729      5.09820     78.05325
     2.66533      5.28013     79.07761      2.16208     54.75218      5.28013     79.07761
     2.68537      5.47156     80.13824      2.21681     55.18773      5.47156     80.13824
     2.70541      5.67316     81.23706      2.27351     55.63427      5.67316     81.23706
     2.72545      5.88569     82.37605      2.33228     56.09218      5.88569     82.37605
     2.74549      6.10994     83.55737      2.39321     56.56189      6.10994     83.55737
     2.76553      6.34681     84.78329      2.45643     57.04389      6.34681     84.78329
     2.78557      6.59726     86.05631      2.52205     57.53859      6.59726     86.05631
     2.80561      6.86238     87.37907      2.59020     58.04644      6.86238     87.37907
     2.82565      7.14332     88.75442      2.66103     58.56797      7.14332     88.75442
     2.84569      7.44140     90.18548      2.73467     59.10371      7.44140     90.18548
     2.86573      7.75803     91.67553      2.81129     59.65424      7.75803     91.67553
     2.88577      8.09480     93.22820      2.89106     60.22015      8.09480     93.22820
     2.90581      8.45347     94.84737      2.97416     60.80205      8.45347     94.84737
     2.92585      8.83599     96.53727      3.06078     61.40063      8.83599     96.53727
     2.94589      9.24452     98.30248      3.15114     62.01652      9.24452     98.30248
      2.9659       9.6815     100.1480       3.2455      62.6506       9.6815     100.1480
      2.9860      10.1496     102.0793       3.3440      63.3035      10.1496     102.0793
      3.0060      10.6520     104.1022       3.4470      63.9761      10.6520     104.1022
      3.0261      11.1920     106.2232       3.5548      64.6694      11.1920     106.2232
      3.0461      11.7734     108.4495       3.6676      65.3842      11.7734     108.4495
      3.0661      12.4007     110.7889       3.7858      66.1216      12.4007     110.7889
      3.0862      13.0789     113.2498       3.9099      66.8826      13.0789     113.2498
      3.1062      13.8135     115.8418       4.0400      67.6683      13.8135     115.8418
      3.1263      14.6110     118.5752       4.1768      68.4801      14.6110     118.5752
      3.1463      15.4789     121.4616       4.3207      69.3191      15.4789     121.4616
      3.1663      16.4256     124.5138       4.4722      70.1868      16.4256     124.5138
      3.1864      17.4610     127.7459       4.6318      71.0846      17.4610     127.7459
      3.2064      18.5965     131.1738       4.8002      72.0142      18.5965     131.1738
      3.2265      19.8454     134.8151       4.9781      72.9772      19.8454     134.8151
      3.2465      21.2233     138.6895       5.1662      73.9756      21.2233     138.6895
      3.2665      22.7484     142.8192       5.3653      75.0113      22.7484     142.8192
      3.2866      24.4426     147.2290       5.5764      76.0864      24.4426     147.2290
      3.3066      26.3314     151.9469       5.8006      77.2032      26.3314     151.9469
      3.3267      28.4459     157.0044       6.0388      78.3643      28.4459     157.0044
      3.3467      30.8231     162.4372       6.2925      79.5724      30.8231     162.4372
      3.3667      33.5080     168.2855       6.5631      80.8305      33.5080     168.2855
      3.3868      36.5556     174.5947       6.8520      82.1416      36.5556     174.5947
      3.4068      40.0332     181.4162       7.1612      83.5093      40.0332     181.4162
      3.4269      44.0247     188.8076       7.4927      84.9375      44.0247     188.8076
      3.4469      48.6344     196.8334       7.8487      86.4303      48.6344     196.8334
      3.4669      53.9940     205.5649       8.2319      87.9923      53.9940     205.5649
      3.4870      60.2710     215.0793       8.6453      89.6285      60.2710     215.0793
      3.5070      67.6801     225.4576       9.0923      91.3444      67.6801     225.4576
      3.5271      76.4989     236.7796       9.5769      93.1462      76.4990     236.7796
      3.5471      87.0897     249.1135      10.1037      95.0404      87.0898     249.1135
      3.5671      99.9273     262.4965      10.6780      97.0348      99.9273     262.4966
      3.5872     115.6353     276.8994      11.3060      99.1374     115.6354     276.8995
      3.6072     135.0290     292.1609      11.9953     101.3575     135.0292     292.1612
      3.6273     159.1539     307.8740      12.7544     103.7054     159.1544     307.8742
      3.6473     189.2897     323.1923      13.5939     106.1924     189.2908     323.1926
      3.6673     226.8472     336.5388      14.5265     108.8314     226.8499     336.5385
      3.6874     272.9997     345.2449      15.5672     111.6364     273.0046     345.2417
      3.7074     327.8671     345.3702      16.7350     114.6230     327.8729     345.3585
      3.7275     389.3293     332.3025      18.0528     117.8088     389.3247     332.2738
      3.7475     452.5151     302.6686      19.5494     121.2124     452.4672     302.6285
      3.7675     511.6386     256.2505      21.2612     124.8540     511.5133     256.2637
      3.7876     562.8652     194.6277      23.2342     128.7543     562.7350     194.8237
      3.8076     602.9843     117.6940      25.5274     132.9329     603.1215     118.0724
      3.8277     624.6747      25.4288      28.2169     137.4057     625.2802      25.5804
      3.8477     617.9487     -75.0236      31.4011     142.1790     618.5793     -75.6199
