#  __      __   ______   __       __  _______    ______     
# |  \    /  \ /      \ |  \     /  \|       \  /      \    
#  \$$\  /  $$|  $$$$$$\| $$\   /  $$| $$$$$$$\|  $$$$$$\   
#   \$$\/  $$ | $$__| $$| $$$\ /  $$$| $$__/ $$| $$  | $$   
#    \$$  $$  | $$    $$| $$$$\  $$$$| $$    $$| $$  | $$   
#     \$$$$   | $$$$$$$$| $$\$$ $$ $$| $$$$$$$\| $$  | $$   
#     | $$    | $$  | $$| $$ \$$$| $$| $$__/ $$| $$__/ $$   
#     | $$    | $$  | $$| $$  \$ | $$| $$    $$ \$$    $$   
#      \$$     \$$   \$$ \$$      \$$ \$$$$$$$   \$$$$$$    
#                                                           
#        Version 4.3.0 Revision 15201 Hash 76636f9          
#                      MPI+SLK Build                        
#                http://www.yambo-code.org                  
#
# Absorption @ Q(1) [q->0 direction] :0.1000E-4  0.000     0.000   
#
#
# - Energies      are  E < 08_gw_eq/ndb.QP + E Fit
# - Wavefunctions are Slater exchange(X)+Perdew & Zunger(C)
#
# - The Green`s function is Retarded -
# - Using the Length Gauge -
# - [r,Vnl] *is* included -
#
#   BSK|Identifier              :8030
#      |Dimension               :100
#      |Bands                   :2 - 7
#      |Exchange           [res]: yes
#      |Correlation        [res]: yes
#      |Kernel`s coupling       : no
#      |Exchange           [cpl]: no
#      |Correlation        [cpl]: no
#      |W interaction is bare   : no
#      |ALDA kernel in R-space  : no
#      |RL vectors    [exchange]:531
#      |RL vectors [correlation]:59
#      |E/h energy range    [ev]:-1.000000 - -1.000000
#      |Coupling range     [o/o]: 100.0000 -  100.0000
#    W |Interaction is diagonal : no
#      |Matrix size             :59
#      |Bands                   :1 - 8
#      |e/h energy range    [ev]:-1.000000 - -1.000000
#      |Poles              [o/o]: 100.0000
#      |RL vectors in the sum   :387
#      |[r,Vnl] included        : yes
#      |Field direction         :0.1000E-4  0.000000  0.000000
#      |Coulomb Cutoff          :none
#      |xc-Kernel               :none
#   RIM|RL components      [col]:0
#      |Random points      [col]:0
#  
#   Haydock|Accuracy (requested) [o/o]:  0.02000
#          |Accuracy (reached)   [o/o]:   0.0037
#          |Iteration                 :24
#
#    E/ev[1]      EPS-Im[2]    EPS-Re[3]    EPSo-Im[4]   EPSo-Re[5]   EPS`-Im[6]   EPS`-Re[7]
#
     0.00000      0.00000     29.07391      0.00000     24.60387      0.00000     29.07391
   0.2004E-1    0.8146E-2     29.07       0.4861E-2     24.60       0.8146E-2     29.07   
   0.4008E-1    0.1630E-1     29.08       0.9723E-2     24.61       0.1630E-1     29.08   
   0.6012E-1    0.2445E-1     29.08       0.1459E-1     24.61       0.2445E-1     29.08   
   0.8016E-1    0.3261E-1     29.09       0.1946E-1     24.61       0.3261E-1     29.09   
   0.1002       0.4079E-1     29.09       0.2433E-1     24.62       0.4079E-1     29.09   
     0.12024      0.04898     29.10324      0.02921     24.62137      0.04898     29.10324
     0.14028      0.05719     29.11384      0.03410     24.62771      0.05719     29.11384
     0.16032      0.06542     29.12609      0.03899     24.63501      0.06542     29.12609
     0.18036      0.07367     29.13998      0.04390     24.64329      0.07367     29.13998
     0.20040      0.08195     29.15553      0.04882     24.65256      0.08195     29.15553
     0.22044      0.09026     29.17273      0.05375     24.66281      0.09026     29.17273
     0.24048      0.09860     29.19160      0.05870     24.67406      0.09860     29.19160
     0.26052      0.10698     29.21213      0.06366     24.68629      0.10698     29.21213
     0.28056      0.11540     29.23435      0.06864     24.69951      0.11540     29.23435
     0.30060      0.12386     29.25825      0.07363     24.71373      0.12386     29.25825
     0.32064      0.13237     29.28384      0.07865     24.72896      0.13237     29.28384
     0.34068      0.14093     29.31114      0.08369     24.74518      0.14093     29.31114
     0.36072      0.14954     29.34015      0.08875     24.76243      0.14954     29.34015
     0.38076      0.15820     29.37089      0.09383     24.78068      0.15820     29.37089
     0.40080      0.16693     29.40337      0.09894     24.79996      0.16693     29.40337
     0.42084      0.17571     29.43759      0.10408     24.82026      0.17571     29.43759
     0.44088      0.18457     29.47358      0.10924     24.84159      0.18457     29.47358
     0.46092      0.19349     29.51134      0.11444     24.86395      0.19349     29.51134
     0.48096      0.20249     29.55089      0.11966     24.88735      0.20249     29.55089
     0.50100      0.21156     29.59224      0.12492     24.91180      0.21156     29.59224
     0.52104      0.22072     29.63542      0.13022     24.93730      0.22072     29.63542
     0.54108      0.22996     29.68043      0.13554     24.96387      0.22996     29.68043
     0.56112      0.23929     29.72729      0.14091     24.99150      0.23929     29.72729
     0.58116      0.24871     29.77603      0.14632     25.02023      0.24871     29.77603
     0.60120      0.25823     29.82666      0.15176     25.05002      0.25823     29.82666
     0.62124      0.26786     29.87920      0.15725     25.08090      0.26786     29.87920
     0.64128      0.27759     29.93367      0.16279     25.11290      0.27759     29.93367
     0.66132      0.28743     29.99010      0.16837     25.14599      0.28743     29.99010
     0.68136      0.29738     30.04849      0.17400     25.18022      0.29738     30.04849
     0.70140      0.30746     30.10889      0.17968     25.21557      0.30746     30.10889
     0.72144      0.31766     30.17132      0.18541     25.25208      0.31766     30.17132
     0.74148      0.32799     30.23579      0.19119     25.28971      0.32799     30.23579
     0.76152      0.33846     30.30233      0.19703     25.32851      0.33846     30.30233
     0.78156      0.34907     30.37098      0.20293     25.36850      0.34907     30.37098
     0.80160      0.35982     30.44176      0.20888     25.40966      0.35982     30.44176
     0.82164      0.37073     30.51470      0.21490     25.45200      0.37073     30.51470
     0.84168      0.38179     30.58984      0.22098     25.49559      0.38179     30.58984
     0.86172      0.39301     30.66719      0.22713     25.54037      0.39301     30.66719
     0.88176      0.40441     30.74680      0.23335     25.58639      0.40441     30.74680
     0.90180      0.41598     30.82870      0.23964     25.63367      0.41598     30.82870
     0.92184      0.42774     30.91293      0.24600     25.68219      0.42774     30.91293
     0.94188      0.43968     30.99952      0.25243     25.73201      0.43968     30.99952
     0.96192      0.45182     31.08852      0.25895     25.78313      0.45182     31.08852
     0.98196      0.46417     31.17995      0.26554     25.83553      0.46417     31.17995
     1.00200      0.47672     31.27386      0.27222     25.88929      0.47672     31.27386
     1.02204      0.48950     31.37030      0.27898     25.94437      0.48950     31.37030
     1.04208      0.50250     31.46931      0.28584     26.00081      0.50250     31.46931
     1.06212      0.51574     31.57093      0.29278     26.05862      0.51574     31.57093
     1.08216      0.52922     31.67522      0.29982     26.11784      0.52922     31.67522
     1.10220      0.54295     31.78222      0.30696     26.17848      0.54295     31.78222
     1.12224      0.55695     31.89198      0.31419     26.24054      0.55695     31.89198
     1.14228      0.57122     32.00455      0.32154     26.30405      0.57122     32.00455
     1.16232      0.58578     32.12000      0.32898     26.36906      0.58578     32.12000
     1.18236      0.60062     32.23838      0.33654     26.43555      0.60062     32.23838
     1.20240      0.61577     32.35974      0.34422     26.50358      0.61577     32.35974
     1.22244      0.63123     32.48415      0.35201     26.57314      0.63123     32.48415
     1.24248      0.64703     32.61167      0.35992     26.64427      0.64703     32.61167
     1.26252      0.66316     32.74237      0.36796     26.71699      0.66316     32.74237
     1.28257      0.67964     32.87632      0.37613     26.79132      0.67964     32.87632
     1.30261      0.69649     33.01358      0.38444     26.86730      0.69649     33.01358
     1.32265      0.71372     33.15423      0.39288     26.94496      0.71372     33.15423
     1.34269      0.73134     33.29835      0.40146     27.02429      0.73134     33.29835
     1.36273      0.74937     33.44602      0.41019     27.10538      0.74937     33.44602
     1.38277      0.76782     33.59731      0.41908     27.18820      0.76782     33.59731
     1.40281      0.78672     33.75232      0.42812     27.27283      0.78672     33.75232
     1.42285      0.80607     33.91113      0.43732     27.35929      0.80607     33.91113
     1.44289      0.82590     34.07383      0.44669     27.44757      0.82590     34.07383
     1.46293      0.84623     34.24053      0.45623     27.53775      0.84623     34.24053
     1.48297      0.86707     34.41132      0.46595     27.62984      0.86707     34.41132
     1.50301      0.88845     34.58630      0.47585     27.72390      0.88845     34.58630
     1.52305      0.91038     34.76559      0.48595     27.81993      0.91038     34.76559
     1.54309      0.93289     34.94928      0.49624     27.91802      0.93289     34.94928
     1.56313      0.95601     35.13752      0.50674     28.01819      0.95601     35.13752
     1.58317      0.97976     35.33039      0.51744     28.12042      0.97976     35.33039
     1.60321      1.00416     35.52806      0.52836     28.22486      1.00416     35.52806
     1.62325      1.02925     35.73063      0.53951     28.33146      1.02925     35.73063
     1.64329      1.05504     35.93825      0.55089     28.44034      1.05504     35.93825
     1.66333      1.08158     36.15107      0.56251     28.55147      1.08158     36.15107
     1.68337      1.10889     36.36922      0.57438     28.66497      1.10889     36.36922
     1.70341      1.13701     36.59287      0.58651     28.78085      1.13701     36.59287
     1.72345      1.16598     36.82218      0.59890     28.89918      1.16598     36.82218
     1.74349      1.19582     37.05731      0.61157     29.01999      1.19582     37.05731
     1.76353      1.22659     37.29845      0.62453     29.14335      1.22659     37.29845
     1.78357      1.25831     37.54578      0.63778     29.26932      1.25831     37.54578
     1.80361      1.29105     37.79949      0.65134     29.39797      1.29105     37.79949
     1.82365      1.32483     38.05978      0.66521     29.52934      1.32483     38.05978
     1.84369      1.35972     38.32687      0.67942     29.66351      1.35972     38.32687
     1.86373      1.39576     38.60099      0.69397     29.80053      1.39576     38.60099
     1.88377      1.43301     38.88234      0.70887     29.94049      1.43301     38.88234
     1.90381      1.47152     39.17118      0.72414     30.08346      1.47152     39.17118
     1.92385      1.51137     39.46777      0.73979     30.22948      1.51137     39.46777
     1.94389      1.55261     39.77237      0.75584     30.37867      1.55261     39.77237
     1.96393      1.59531     40.08526      0.77230     30.53108      1.59531     40.08526
     1.98397      1.63956     40.40674      0.78919     30.68681      1.63956     40.40674
     2.00401      1.68542     40.73709      0.80652     30.84592      1.68542     40.73709
     2.02405      1.73298     41.07668      0.82431     31.00855      1.73298     41.07668
     2.04409      1.78233     41.42580      0.84259     31.17473      1.78233     41.42580
     2.06413      1.83356     41.78485      0.86137     31.34462      1.83356     41.78485
     2.08417      1.88679     42.15419      0.88066     31.51830      1.88679     42.15419
     2.10421      1.94211     42.53420      0.90050     31.69581      1.94211     42.53420
     2.12425      1.99963     42.92533      0.92091     31.87736      1.99963     42.92533
     2.14429      2.05950     43.32800      0.94190     32.06301      2.05950     43.32800
     2.16433      2.12183     43.74268      0.96351     32.25287      2.12183     43.74268
     2.18437      2.18677     44.16986      0.98576     32.44707      2.18677     44.16986
     2.20441      2.25447     44.61007      1.00868     32.64577      2.25447     44.61007
     2.22445      2.32510     45.06385      1.03229     32.84908      2.32510     45.06385
     2.24449      2.39883     45.53178      1.05664     33.05712      2.39883     45.53178
     2.26453      2.47585     46.01449      1.08174     33.27007      2.47585     46.01449
     2.28457      2.55636     46.51262      1.10764     33.48806      2.55636     46.51262
     2.30461      2.64059     47.02686      1.13438     33.71129      2.64059     47.02686
     2.32465      2.72877     47.55797      1.16199     33.93990      2.72877     47.55797
     2.34469      2.82117     48.10671      1.19051     34.17403      2.82117     48.10671
     2.36473      2.91805     48.67393      1.21999     34.41389      2.91805     48.67393
     2.38477      3.01972     49.26051      1.25048     34.65970      3.01972     49.26051
     2.40481      3.12651     49.86739      1.28202     34.91164      3.12651     49.86739
     2.42485      3.23877     50.49559      1.31466     35.16991      3.23877     50.49559
     2.44489      3.35689     51.14618      1.34848     35.43475      3.35689     51.14618
     2.46493      3.48129     51.82032      1.38351     35.70639      3.48129     51.82032
     2.48497      3.61243     52.51925      1.41982     35.98504      3.61243     52.51925
     2.50501      3.75082     53.24429      1.45749     36.27099      3.75082     53.24429
     2.52505      3.89700     53.99685      1.49659     36.56452      3.89700     53.99685
     2.54509      4.05159     54.77847      1.53719     36.86591      4.05159     54.77847
     2.56513      4.21524     55.59078      1.57938     37.17542      4.21524     55.59078
     2.58517      4.38868     56.43555      1.62325     37.49342      4.38868     56.43555
     2.60521      4.57273     57.31469      1.66889     37.82021      4.57273     57.31469
     2.62525      4.76828     58.23027      1.71640     38.15616      4.76828     58.23027
     2.64529      4.97631     59.18449      1.76589     38.50163      4.97631     59.18449
     2.66533      5.19791     60.17978      1.81749     38.85699      5.19791     60.17978
     2.68537      5.43431     61.21873      1.87133     39.22273      5.43431     61.21873
     2.70541      5.68686     62.30423      1.92753     39.59925      5.68686     62.30423
     2.72545      5.95708     63.43933      1.98625     39.98702      5.95708     63.43933
     2.74549      6.24666     64.62743      2.04765     40.38653      6.24666     64.62743
     2.76553      6.55751     65.87220      2.11191     40.79836      6.55751     65.87220
     2.78557      6.89178     67.17764      2.17921     41.22297      6.89178     67.17764
     2.80561      7.25190     68.54820      2.24977     41.66101      7.25190     68.54820
     2.82565      7.64059     69.98872      2.32380     42.11321      7.64059     69.98872
     2.84569      8.06099     71.50452      2.40156     42.58014      8.06099     71.50452
     2.86573      8.51665     73.10149      2.48331     43.06257      8.51665     73.10149
     2.88577      9.01161     74.78607      2.56934     43.56131      9.01161     74.78607
     2.90581      9.55055     76.56551      2.65999     44.07718      9.55055     76.56551
     2.92585     10.13884     78.44778      2.75559     44.61107     10.13884     78.44778
     2.94589     10.78268     80.44171      2.85655     45.16391     10.78268     80.44171
     2.96593     11.48927     82.55722      2.96329     45.73681     11.48927     82.55722
     2.98597     12.26704     84.80532      3.07629     46.33090     12.26704     84.80532
     3.00601     13.12581     87.19837      3.19607     46.94731     13.12581     87.19837
     3.02605     14.07720     89.75027      3.32323     47.58747     14.07720     89.75027
     3.04609     15.13494     92.47658      3.45841     48.25266     15.13494     92.47658
     3.06613     16.31536     95.39489      3.60234     48.94455     16.31536     95.39489
     3.08617     17.63800     98.52502      3.75584     49.66466     17.63800     98.52502
      3.1062      19.1264     101.8894       3.9198      50.4149      19.1264     101.8894
      3.1263      20.8091     105.5134       4.0954      51.1974      20.8091     105.5134
      3.1463      22.7210     109.4258       4.2836      52.0140      22.7210     109.4258
      3.1663      24.9049     113.6591       4.4858      52.8673      24.9049     113.6591
      3.1864      27.4138     118.2500       4.7036      53.7599      27.4138     118.2500
      3.2064      30.3139     123.2396       4.9387      54.6946      30.3139     123.2396
      3.2265      33.6886     128.6738       5.1930      55.6746      33.6886     128.6738
      3.2465      37.6439     134.6028       5.4689      56.7034      37.6439     134.6028
      3.2665      42.3156     141.0806       5.7690      57.7848      42.3156     141.0806
      3.2866      47.8792     148.1619       6.0964      58.9232      47.8792     148.1619
      3.3066      54.5639     155.8978       6.4547      60.1233      54.5639     155.8978
      3.3267      62.6709     164.3259       6.8482      61.3903      62.6709     164.3259
      3.3467      72.5989     173.4527       7.2820      62.7304      72.5989     173.4527
      3.3667      84.8772     183.2203       7.7619      64.1502      84.8772     183.2203
      3.3868     100.2055     193.4465       8.2953      65.6570     100.2055     193.4465
      3.4068     119.4962     203.7189       8.8907      67.2594     119.4962     203.7189
      3.4269     143.8938     213.2086       9.5588      68.9666     143.8938     213.2086
      3.4469     174.7113     220.3641      10.3124      70.7893     174.7113     220.3641
      3.4669     213.1357     222.4615      11.1676      72.7392     213.1357     222.4615
      3.4870     259.4162     215.1210      12.1443      74.8295     259.4162     215.1210
      3.5070     311.1962     192.3234      13.2674      77.0745     311.1962     192.3234
      3.5271     361.2333     148.2196      14.5687      79.4901     361.2334     148.2194
      3.5471     396.8404      81.9403      16.0890      82.0926     396.8404      81.9403
      3.5671     405.1275       2.7980      17.8808      84.8983     405.1275       2.7980
      3.5872     382.6553     -71.9149      20.0129      87.9214     382.6552     -71.9150
      3.6072     338.5457    -127.7931      22.5755      91.1708     338.5458    -127.7931
      3.6273     286.6996    -160.8443      25.6878      94.6430     286.6996    -160.8443
      3.6473     237.3773    -175.1197      29.5069      98.3106     237.3773    -175.1197
      3.6673     195.1875    -176.9553      34.2383     102.1006     195.1875    -176.9553
      3.6874     160.9607    -171.6465      40.1421     105.8563     160.9607    -171.6465
      3.7074     133.8520    -162.7166      47.5254     109.2743     133.8520    -162.7166
      3.7275     112.5620    -152.2517      56.6917     111.8071     112.5620    -152.2517
      3.7475      95.8538    -141.3997      67.7880     112.5474      95.8538    -141.3997
      3.7675      82.7098    -130.7518      80.4700     110.1849      82.7098    -130.7518
      3.7876      72.3441    -120.5845      93.3822     103.2942      72.3442    -120.5845
      3.8076      64.1693    -111.0030     103.8523      91.2910      64.1694    -111.0030
      3.8277      57.7553    -102.0219     108.7353      75.7541      57.7553    -102.0220
      3.8477      52.7948     -93.6117     106.5883      60.4652      52.7948     -93.6117
