#  __      __   ______   __       __  _______    ______     
# |  \    /  \ /      \ |  \     /  \|       \  /      \    
#  \$$\  /  $$|  $$$$$$\| $$\   /  $$| $$$$$$$\|  $$$$$$\   
#   \$$\/  $$ | $$__| $$| $$$\ /  $$$| $$__/ $$| $$  | $$   
#    \$$  $$  | $$    $$| $$$$\  $$$$| $$    $$| $$  | $$   
#     \$$$$   | $$$$$$$$| $$\$$ $$ $$| $$$$$$$\| $$  | $$   
#     | $$    | $$  | $$| $$ \$$$| $$| $$__/ $$| $$__/ $$   
#     | $$    | $$  | $$| $$  \$ | $$| $$    $$ \$$    $$   
#      \$$     \$$   \$$ \$$      \$$ \$$$$$$$   \$$$$$$    
#                                                           
#        Version 4.3.0 Revision 15201 Hash 76636f9          
#                      MPI+SLK Build                        
#                http://www.yambo-code.org                  
#
# Absorption @ Q(1) [q->0 direction] :0.1000E-4  0.000     0.000   
#
#
# - Energies      are  E < 08_gw_eq/ndb.QP + E Fit
# - Wavefunctions are Slater exchange(X)+Perdew & Zunger(C)
#
# - The Green`s function is Retarded -
# - Using the Length Gauge -
# - [r,Vnl] *is* included -
#
#   BSK|Identifier              :8720
#      |Dimension               :72
#      |Bands                   :2 - 7
#      |Exchange           [res]: yes
#      |Correlation        [res]: yes
#      |Kernel`s coupling       : no
#      |Exchange           [cpl]: no
#      |Correlation        [cpl]: no
#      |W interaction is bare   : no
#      |ALDA kernel in R-space  : no
#      |RL vectors    [exchange]:531
#      |RL vectors [correlation]:59
#      |E/h energy range    [ev]:-1.000000 - -1.000000
#      |Coupling range     [o/o]: 100.0000 -  100.0000
#    W |Interaction is diagonal : no
#      |Matrix size             :59
#      |Bands                   :1 - 8
#      |e/h energy range    [ev]:-1.000000 - -1.000000
#      |Poles              [o/o]: 100.0000
#      |RL vectors in the sum   :387
#      |[r,Vnl] included        : yes
#      |Field direction         :0.1000E-4  0.000000  0.000000
#      |Coulomb Cutoff          :none
#      |xc-Kernel               :none
#   RIM|RL components      [col]:0
#      |Random points      [col]:0
#  
#   Haydock|Accuracy (requested) [o/o]:  0.02000
#          |Accuracy (reached)   [o/o]:  0.01386
#          |Iteration                 :14
#
#    E/ev[1]      EPS-Im[2]    EPS-Re[3]    EPSo-Im[4]   EPSo-Re[5]   EPS`-Im[6]   EPS`-Re[7]
#
     0.00000      0.00000     45.37346      0.00000     38.36646      0.00000     45.37346
   0.2004E-1    0.1308E-1     45.37       0.7893E-2     38.37       0.1308E-1     45.37   
   0.4008E-1    0.2617E-1     45.38       0.1579E-1     38.37       0.2617E-1     45.38   
   0.6012E-1    0.3927E-1     45.39       0.2369E-1     38.37       0.3927E-1     45.39   
   0.8016E-1    0.5239E-1     45.39       0.3159E-1     38.38       0.5239E-1     45.39   
   0.1002       0.6552E-1     45.41       0.3951E-1     38.39       0.6552E-1     45.41   
     0.12024      0.07868     45.42057      0.04743     38.39489      0.07868     45.42057
     0.14028      0.09186     45.43760      0.05537     38.40517      0.09186     45.43760
     0.16032      0.10508     45.45728      0.06332     38.41703      0.10508     45.45728
     0.18036      0.11834     45.47960      0.07129     38.43049      0.11834     45.47960
     0.20040      0.13164     45.50456      0.07928     38.44553      0.13164     45.50456
     0.22044      0.14499     45.53220      0.08729     38.46217      0.14499     45.53220
     0.24048      0.15839     45.56250      0.09532     38.48044      0.15839     45.56250
     0.26052      0.17185     45.59549      0.10339     38.50029      0.17185     45.59549
     0.28056      0.18538     45.63118      0.11147     38.52178      0.18538     45.63118
     0.30060      0.19898     45.66956      0.11959     38.54488      0.19898     45.66956
     0.32064      0.21265     45.71067      0.12774     38.56960      0.21265     45.71067
     0.34068      0.22640     45.75453      0.13593     38.59596      0.22640     45.75453
     0.36072      0.24023     45.80114      0.14415     38.62396      0.24023     45.80114
     0.38076      0.25416     45.85052      0.15242     38.65361      0.25416     45.85052
     0.40080      0.26818     45.90269      0.16072     38.68493      0.26818     45.90269
     0.42084      0.28230     45.95767      0.16907     38.71789      0.28230     45.95767
     0.44088      0.29653     46.01548      0.17747     38.75253      0.29653     46.01548
     0.46092      0.31087     46.07615      0.18592     38.78886      0.31087     46.07615
     0.48096      0.32534     46.13969      0.19442     38.82686      0.32534     46.13969
     0.50100      0.33993     46.20614      0.20297     38.86661      0.33993     46.20614
     0.52104      0.35465     46.27551      0.21158     38.90802      0.35465     46.27551
     0.54108      0.36951     46.34783      0.22025     38.95119      0.36951     46.34783
     0.56112      0.38451     46.42314      0.22898     38.99611      0.38451     46.42314
     0.58116      0.39967     46.50145      0.23778     39.04275      0.39967     46.50145
     0.60120      0.41498     46.58281      0.24665     39.09120      0.41498     46.58281
     0.62124      0.43046     46.66724      0.25559     39.14139      0.43046     46.66724
     0.64128      0.44611     46.75477      0.26460     39.19338      0.44611     46.75477
     0.66132      0.46194     46.84545      0.27369     39.24720      0.46194     46.84545
     0.68136      0.47796     46.93931      0.28285     39.30283      0.47796     46.93931
     0.70140      0.49418     47.03638      0.29210     39.36029      0.49418     47.03638
     0.72144      0.51059     47.13671      0.30144     39.41964      0.51059     47.13671
     0.74148      0.52722     47.24034      0.31087     39.48083      0.52722     47.24034
     0.76152      0.54407     47.34731      0.32038     39.54392      0.54407     47.34731
     0.78156      0.56114     47.45766      0.33000     39.60891      0.56114     47.45766
     0.80160      0.57846     47.57144      0.33971     39.67586      0.57846     47.57144
     0.82164      0.59601     47.68870      0.34953     39.74475      0.59601     47.68870
     0.84168      0.61383     47.80949      0.35945     39.81562      0.61383     47.80949
     0.86172      0.63191     47.93385      0.36948     39.88845      0.63191     47.93385
     0.88176      0.65026     48.06186      0.37963     39.96331      0.65026     48.06186
     0.90180      0.66890     48.19355      0.38989     40.04023      0.66890     48.19355
     0.92184      0.68784     48.32899      0.40028     40.11920      0.68784     48.32899
     0.94188      0.70708     48.46823      0.41079     40.20025      0.70708     48.46823
     0.96192      0.72665     48.61134      0.42143     40.28343      0.72665     48.61134
     0.98196      0.74654     48.75839      0.43221     40.36871      0.74654     48.75839
     1.00200      0.76678     48.90944      0.44312     40.45620      0.76678     48.90944
     1.02204      0.78737     49.06455      0.45418     40.54583      0.78737     49.06455
     1.04208      0.80833     49.22382      0.46539     40.63774      0.80833     49.22382
     1.06212      0.82968     49.38728      0.47675     40.73189      0.82968     49.38728
     1.08216      0.85142     49.55505      0.48826     40.82831      0.85142     49.55505
     1.10220      0.87357     49.72719      0.49994     40.92705      0.87357     49.72719
     1.12224      0.89615     49.90379      0.51179     41.02812      0.89615     49.90379
     1.14228      0.91918     50.08493      0.52381     41.13160      0.91918     50.08493
     1.16232      0.94266     50.27069      0.53601     41.23750      0.94266     50.27069
     1.18236      0.96661     50.46119      0.54840     41.34584      0.96661     50.46119
     1.20240      0.99107     50.65651      0.56098     41.45666      0.99107     50.65651
     1.22244      1.01603     50.85674      0.57375     41.57003      1.01603     50.85674
     1.24248      1.04152     51.06200      0.58673     41.68596      1.04152     51.06200
     1.26252      1.06757     51.27238      0.59992     41.80451      1.06757     51.27238
     1.28257      1.09419     51.48801      0.61332     41.92570      1.09419     51.48801
     1.30261      1.12140     51.70899      0.62695     42.04960      1.12140     51.70899
     1.32265      1.14923     51.93545      0.64081     42.17624      1.14923     51.93545
     1.34269      1.17770     52.16751      0.65491     42.30566      1.17770     52.16751
     1.36273      1.20683     52.40530      0.66926     42.43789      1.20683     52.40530
     1.38277      1.23665     52.64895      0.68386     42.57307      1.23665     52.64895
     1.40281      1.26720     52.89861      0.69872     42.71114      1.26720     52.89861
     1.42285      1.29848     53.15440      0.71386     42.85222      1.29848     53.15440
     1.44289      1.33055     53.41650      0.72927     42.99635      1.33055     53.41650
     1.46293      1.36342     53.68505      0.74498     43.14357      1.36342     53.68505
     1.48297      1.39712     53.96022      0.76098     43.29397      1.39712     53.96022
     1.50301      1.43170     54.24217      0.77729     43.44757      1.43170     54.24217
     1.52305      1.46719     54.53108      0.79393     43.60445      1.46719     54.53108
     1.54309      1.50362     54.82713      0.81089     43.76469      1.50362     54.82713
     1.56313      1.54103     55.13052      0.82820     43.92835      1.54103     55.13052
     1.58317      1.57947     55.44143      0.84586     44.09549      1.57947     55.44143
     1.60321      1.61898     55.76008      0.86388     44.26616      1.61898     55.76008
     1.62325      1.65959     56.08668      0.88229     44.44052      1.65959     56.08668
     1.64329      1.70137     56.42145      0.90108     44.61854      1.70137     56.42145
     1.66333      1.74435     56.76464      0.92028     44.80031      1.74435     56.76464
     1.68337      1.78860     57.11647      0.93990     44.98598      1.78860     57.11647
     1.70341      1.83416     57.47720      0.95995     45.17562      1.83416     57.47720
     1.72345      1.88110     57.84711      0.98045     45.36928      1.88110     57.84711
     1.74349      1.92948     58.22645      1.00142     45.56705      1.92948     58.22645
     1.76353      1.97935     58.61553      1.02287     45.76908      1.97935     58.61553
     1.78357      2.03079     59.01464      1.04482     45.97540      2.03079     59.01464
     1.80361      2.08387     59.42410      1.06729     46.18614      2.08387     59.42410
     1.82365      2.13867     59.84424      1.09029     46.40141      2.13867     59.84424
     1.84369      2.19527     60.27540      1.11385     46.62131      2.19527     60.27540
     1.86373      2.25375     60.71794      1.13799     46.84595      2.25375     60.71794
     1.88377      2.31420     61.17225      1.16273     47.07544      2.31420     61.17225
     1.90381      2.37672     61.63870      1.18810     47.30996      2.37672     61.63870
     1.92385      2.44141     62.11773      1.21411     47.54952      2.44141     62.11773
     1.94389      2.50837     62.60976      1.24079     47.79435      2.50837     62.60976
     1.96393      2.57773     63.11526      1.26817     48.04455      2.57773     63.11526
     1.98397      2.64959     63.63469      1.29628     48.30029      2.64959     63.63469
     2.00401      2.72410     64.16856      1.32514     48.56162      2.72410     64.16856
     2.02405      2.80139     64.71740      1.35479     48.82884      2.80139     64.71740
     2.04409      2.88160     65.28177      1.38525     49.10198      2.88160     65.28177
     2.06413      2.96489     65.86224      1.41657     49.38123      2.96489     65.86224
     2.08417      3.05143     66.45945      1.44877     49.66681      3.05143     66.45945
     2.10421      3.14139     67.07403      1.48189     49.95891      3.14139     67.07403
     2.12425      3.23496     67.70667      1.51598     50.25762      3.23496     67.70667
     2.14429      3.33236     68.35808      1.55108     50.56321      3.33236     68.35808
     2.16433      3.43378     69.02903      1.58722     50.87586      3.43378     69.02903
     2.18437      3.53948     69.72034      1.62445     51.19580      3.53948     69.72034
     2.20441      3.64969     70.43282      1.66283     51.52322      3.64969     70.43282
     2.22445      3.76469     71.16741      1.70239     51.85836      3.76469     71.16741
     2.24449      3.88477     71.92505      1.74321     52.20145      3.88477     71.92505
     2.26453      4.01023     72.70672      1.78533     52.55278      4.01023     72.70672
     2.28457      4.14141     73.51353      1.82882     52.91254      4.14141     73.51353
     2.30461      4.27868     74.34661      1.87373     53.28108      4.27868     74.34661
     2.32465      4.42241     75.20715      1.92014     53.65863      4.42241     75.20715
     2.34469      4.57305     76.09644      1.96812     54.04552      4.57305     76.09644
     2.36473      4.73103     77.01584      2.01775     54.44207      4.73103     77.01584
     2.38477      4.89687     77.96681      2.06911     54.84858      4.89687     77.96681
     2.40481      5.07108     78.95090      2.12227     55.26543      5.07108     78.95090
     2.42485      5.25427     79.96976      2.17735     55.69294      5.25427     79.96976
     2.44489      5.44706     81.02517      2.23443     56.13152      5.44706     81.02517
     2.46493      5.65015     82.11900      2.29362     56.58160      5.65015     82.11900
     2.48497      5.86430     83.25329      2.35503     57.04353      5.86430     83.25329
     2.50501      6.09033     84.43021      2.41878     57.51781      6.09033     84.43021
     2.52505      6.32915     85.65208      2.48500     58.00487      6.32915     85.65208
     2.54509      6.58176     86.92142      2.55383     58.50525      6.58176     86.92142
     2.56513      6.84925     88.24090      2.62540     59.01940      6.84925     88.24090
     2.58517      7.13281     89.61343      2.69989     59.54798      7.13281     89.61343
     2.60521      7.43379     91.04214      2.77746     60.09144      7.43379     91.04214
     2.62525      7.75364     92.53042      2.85828     60.65045      7.75364     92.53042
     2.64529      8.09399     94.08191      2.94256     61.22568      8.09399     94.08191
     2.66533      8.45665     95.70057      3.03051     61.81779      8.45665     95.70057
     2.68537      8.84361     97.39069      3.12235     62.42752      8.84361     97.39069
     2.70541      9.25712     99.15696      3.21833     63.05560      9.25712     99.15696
      2.7255       9.6997     101.0045       3.3187      63.7029       9.6997     101.0045
      2.7455      10.1741     102.9387       3.4238      64.3703      10.1741     102.9387
      2.7655      10.6834     104.9658       3.5339      65.0587      10.6834     104.9658
      2.7856      11.2313     107.0923       3.6493      65.7691      11.2313     107.0923
      2.8056      11.8217     109.3255       3.7705      66.5025      11.8217     109.3255
      2.8257      12.4592     111.6733       3.8977      67.2601      12.4592     111.6733
      2.8457      13.1488     114.1446       4.0316      68.0431      13.1488     114.1446
      2.8657      13.8964     116.7489       4.1725      68.8528      13.8964     116.7489
      2.8858      14.7088     119.4970       4.3209      69.6904      14.7088     119.4970
      2.9058      15.5935     122.4008       4.4775      70.5576      15.5935     122.4008
      2.9259      16.5596     125.4732       4.6429      71.4559      16.5596     125.4732
      2.9459      17.6172     128.7290       4.8179      72.3871      17.6172     128.7290
      2.9659      18.7781     132.1844       5.0031      73.3529      18.7781     132.1844
      2.9860      20.0564     135.8576       5.1994      74.3554      20.0564     135.8576
      3.0060      21.4682     139.7689       5.4078      75.3967      21.4682     139.7689
      3.0261      23.0327     143.9412       5.6295      76.4792      23.0327     143.9412
      3.0461      24.7725     148.4002       5.8655      77.6053      24.7725     148.4002
      3.0661      26.7147     153.1749       6.1172      78.7779      26.7147     153.1749
      3.0862      28.8915     158.2979       6.3861      79.9999      28.8914     158.2979
      3.1062      31.3417     163.8061       6.6738      81.2745      31.3417     163.8061
      3.1263      34.1126     169.7417       6.9824      82.6054      34.1126     169.7417
      3.1463      37.2618     176.1517       7.3139      83.9964      37.2617     176.1517
      3.1663      40.8598     183.0899       7.6709      85.4519      40.8598     183.0899
      3.1864      44.9944     190.6168       8.0560      86.9764      44.9944     190.6168
      3.2064      49.7749     198.8002       8.4725      88.5753      49.7749     198.8002
      3.2265      55.3393     207.7160       8.9242      90.2541      55.3393     207.7160
      3.2465      61.8625     217.4469       9.4152      92.0193      61.8625     217.4469
      3.2665      69.5690     228.0818       9.9505      93.8779      69.5690     228.0818
      3.2866      78.7489     239.7111      10.5360      95.8377      78.7489     239.7111
      3.3066      89.7811     252.4190      11.1783      97.9073      89.7811     252.4190
      3.3267     103.1634     266.2674      11.8855     100.0967     103.1633     266.2674
      3.3467     119.5549     281.2668      12.6670     102.4165     119.5549     281.2669
      3.3667     139.8305     297.3210      13.5341     104.8790     139.8304     297.3211
      3.3868     165.1470     314.1288      14.5005     107.4980     165.1469     314.1288
      3.4068     197.0127     331.0074      15.5824     110.2888     197.0125     331.0075
      3.4269     237.3195     346.5861      16.7999     113.2687     237.3193     346.5863
      3.4469     288.2389     358.2993      18.1775     116.4574     288.2386     358.2996
      3.4669     351.7324     361.6426      19.7455     119.8764     351.7320     361.6432
      3.4870     428.2123     349.3734      21.5420     123.5501     428.2122     349.3745
      3.5070     513.7822     311.5383      23.6145     127.5052     513.7822     311.5401
      3.5271     596.4667     238.4638      26.0239     131.7706     596.4678     238.4659
      3.5471     655.2855     128.7108      28.8480     136.3764     655.2878     128.7130
      3.5671     668.9223      -2.3226      32.1876     141.3526     668.9263      -2.3217
      3.5872     631.6889    -126.0428      36.1747     146.7249     631.6937    -126.0437
      3.6072     558.6698    -218.6295      40.9825     152.5079     558.6743    -218.6328
      3.6273     472.8504    -273.4849      46.8404     158.6928     472.8535    -273.4900
      3.6473     391.1952    -297.3110      54.0508     165.2234     391.1969    -297.3173
      3.6673     321.3205    -300.5871      63.0096     171.9552     321.3200    -300.5941
      3.6874     264.5964    -292.0713      74.2181     178.5810     264.5938    -292.0784
      3.7074     219.6223    -277.5910      88.2683     184.5082     219.6175    -277.5977
      3.7275     184.2456    -260.5983     105.7439     188.6711     184.2384    -260.6039
      3.7475     156.4153    -242.9938     126.9253     189.3051     156.4058    -242.9976
      3.7675     134.4424    -225.7584     151.1382     183.8641     134.4311    -225.7593
      3.7876     117.0188    -209.3525     175.7465     169.5777     117.0068    -209.3496
      3.8076     103.1619    -193.9526     195.5588     145.3055     103.1507    -193.9459
      3.8277      92.1469    -179.5854     204.4645     114.1010      92.1378    -179.5753
      3.8477      83.4484    -166.2041     199.6510      83.2883      83.4421    -166.1917
