#                                                           
#                                                           
# Y88b    /   e           e    e      888~~\    ,88~-_      
#  Y88b  /   d8b         d8b  d8b     888   |  d888   \     
#   Y88b/   /Y88b       d888bdY88b    888 _/  88888    |    
#    Y8Y   /  Y88b     / Y88Y Y888b   888  \  88888    |    
#     Y   /____Y88b   /   YY   Y888b  888   |  Y888   /     
#    /   /      Y88b /          Y888b 888__/    `88_-~      
#                                                           
#                                                           
#       Version 4.1.0 Revision 13814 Hash e27d56e           
#                       MPI Build                           
#               http://www.yambo-code.org                   
#
# Polarizability ( -<<X>> ) [volume @ Q(1) [q->0 direction]0.5774E-5 0.5774E-5 0.5774E-5
#
#
# - Energies      are Teter 93(XC)
# - Wavefunctions are Teter 93(XC)
#
# - The Green`s function is Resonant -
# - Using the Length Gauge -
# - [r,Vnl] *is* included -
#
#   BSK|Identifier              :5416
#      |Dimension               :110
#      |Bands                   :14 - 34
#      |Exchange           [res]: yes
#      |Correlation        [res]: no
#      |Kernel`s coupling       : no
#      |Exchange           [cpl]: no
#      |Correlation        [cpl]: no
#      |W interaction is bare   : no
#      |ALDA kernel in R-space  : yes
#      |RL vectors    [exchange]:367
#      |E/h energy range    [ev]:-1.000000 - -1.000000
#      |Coupling range     [o/o]: 100.0000 -  100.0000
#
#  E/ev[1]    ALPHA-Im[2]ALPHA-Re[3]ALPHAo-Im[4ALPHAo-Re[5]
#
  3.000     0.1473E-1   60.38     0.5902E-1   102.2   
    3.0100     0.7747    60.4529     3.0616   102.5801
    3.0200     0.7925    60.1796     3.1807   101.5762
    3.0300     0.7976    60.1160     3.2321   101.4009
    3.0401     0.8020    60.1017     3.2777   101.4012
    3.0501     0.8062    60.1042     3.3211   101.4935
    3.0601     0.8103    60.1253     3.3635   101.6383
    3.0701     0.8143    60.1519     3.4054   101.8226
    3.0801     0.8183    60.1857     3.4475   102.0280
    3.0901     0.8224    60.2220     3.4898   102.2560
    3.1001     0.8263    60.2684     3.5323   102.5042
    3.1101     0.8303    60.3111     3.5752   102.7661
    3.1202     0.8344    60.3594     3.6189   103.0354
    3.1302     0.8384    60.4079     3.6629   103.3209
    3.1402     0.8424    60.4617     3.7076   103.6152
    3.1502     0.8465    60.5169     3.7528   103.9211
    3.1602     0.8506    60.5680     3.7991   104.2287
    3.1702     0.8547    60.6260     3.8458   104.5507
    3.1802     0.8589    60.6850     3.8934   104.8798
    3.1902     0.8631    60.7405     3.9418   105.2142
    3.2003     0.8673    60.8051     3.9910   105.5604
    3.2103     0.8715    60.8663     4.0410   105.9134
    3.2203     0.8758    60.9272     4.0921   106.2669
    3.2303     0.8800    60.9894     4.1440   106.6348
    3.2403     0.8843    61.0572     4.1969   107.0057
    3.2503     0.8887    61.1200     4.2507   107.3860
    3.2603     0.8931    61.1895     4.3057   107.7709
    3.2703     0.8975    61.2550     4.3616   108.1643
    3.2804     0.9019    61.3206     4.4188   108.5608
    3.2904     0.9064    61.3909     4.4770   108.9682
    3.3004     0.9109    61.4585     4.5364   109.3812
    3.3104     0.9155    61.5310     4.5969   109.8020
    3.3204     0.9201    61.5970     4.6589   110.2244
    3.3304     0.9247    61.6729     4.7218   110.6631
    3.3404     0.9294    61.7440     4.7862   111.1039
    3.3504     0.9340    61.8179     4.8519   111.5522
    3.3605     0.9388    61.8895     4.9191   112.0061
    3.3705     0.9435    61.9665     4.9877   112.4684
    3.3805     0.9484    62.0361     5.0579   112.9361
    3.3905     0.9532    62.1124     5.1295   113.4130
    3.4005     0.9581    62.1869     5.2026   113.8995
    3.4105     0.9630    62.2673     5.2772   114.3966
    3.4205     0.9680    62.3404     5.3537   114.8962
    3.4305     0.9730    62.4200     5.4320   115.4037
    3.4406     0.9781    62.4977     5.5119   115.9227
    3.4506     0.9832    62.5758     5.5940   116.4435
    3.4606     0.9883    62.6576     5.6775   116.9823
    3.4706     0.9935    62.7389     5.7633   117.5235
    3.4806     0.9987    62.8203     5.8509   118.0763
    3.4906     1.0040    62.9062     5.9406   118.6397
    3.5006     1.0093    62.9852     6.0328   119.2067
    3.5106     1.0147    63.0691     6.1270   119.7858
    3.5207     1.0201    63.1510     6.2235   120.3753
    3.5307     1.0255    63.2364     6.3225   120.9743
    3.5407     1.0310    63.3234     6.4238   121.5842
    3.5507     1.0366    63.4070     6.5279   122.2013
    3.5607     1.0422    63.4930     6.6346   122.8312
    3.5707     1.0479    63.5815     6.7439   123.4716
    3.5807     1.0536    63.6649     6.8565   124.1187
    3.5907     1.0593    63.7583     6.9713   124.7865
    3.6008     1.0651    63.8469     7.0895   125.4604
    3.6108     1.0710    63.9370     7.2109   126.1471
    3.6208     1.0769    64.0289     7.3353   126.8482
    3.6308     1.0829    64.1167     7.4635   127.5572
    3.6408     1.0889    64.2073     7.5950   128.2812
    3.6508     1.0950    64.3039     7.7302   129.0192
    3.6608     1.1011    64.3946     7.8691   129.7714
    3.6708     1.1073    64.4920     8.0120   130.5360
    3.6809     1.1136    64.5811     8.1591   131.3138
    3.6909     1.1199    64.6782     8.3105   132.1065
    3.7009     1.1263    64.7708     8.4662   132.9151
    3.7109     1.1327    64.8670     8.6269   133.7358
    3.7209     1.1392    64.9648     8.7918   134.5781
    3.7309     1.1458    65.0643     8.9619   135.4345
    3.7409     1.1524    65.1618     9.1373   136.3065
    3.7509     1.1590    65.2667     9.3175   137.2028
    3.7610     1.1658    65.3614     9.5045   138.1044
    3.7710     1.1726    65.4648     9.6966   139.0330
    3.7810     1.1795    65.5670     9.8949   139.9787
    3.7910     1.1864    65.6698    10.0998   140.9431
    3.8010     1.1935    65.7730    10.3112   141.9294
    3.8110     1.2006    65.8765    10.5301   142.9320
    3.8210     1.2077    65.9801    10.7557   143.9609
    3.8310     1.2149    66.0888    10.9893   145.0088
    3.8411     1.2223    66.1884    11.2311   146.0783
    3.8511     1.2296    66.3003    11.4809   147.1744
    3.8611     1.2371    66.4041    11.7395   148.2940
    3.8711     1.2446    66.5181    12.0072   149.4398
    3.8811     1.2522    66.6257    12.2846   150.6113
    3.8911     1.2600    66.7320    12.5727   151.8053
    3.9011     1.2677    66.8431    12.8712   153.0297
    3.9111     1.2756    66.9564    13.1805   154.2850
    3.9212     1.2835    67.0714    13.5018   155.5682
    3.9312     1.2915    67.1865    13.8351   156.8850
    3.9412     1.2996    67.2983    14.1826   158.2268
    3.9512     1.3078    67.4117    14.5432   159.6056
    3.9612     1.3161    67.5274    14.9184   161.0180
    3.9712     1.3245    67.6439    15.3090   162.4654
    3.9812     1.3329    67.7624    15.7151   163.9537
    3.9912     1.3415    67.8818    16.1391   165.4763
    4.0013     1.3501    68.0001    16.5806   167.0414
    4.0113     1.3588    68.1248    17.0413   168.6479
    4.0213     1.3677    68.2384    17.5229   170.2947
    4.0313     1.3766    68.3633    18.0257   171.9881
    4.0413     1.3857    68.4869    18.5510   173.7301
    4.0513     1.3948    68.6124    19.1011   175.5186
    4.0613     1.4040    68.7386    19.6766   177.3596
    4.0713     1.4134    68.8621    20.2807   179.2502
    4.0814     1.4229    68.9900    20.9135   181.1987
    4.0914     1.4324    69.1172    21.5781   183.2036
    4.1014     1.4422    69.2415    22.2769   185.2667
    4.1114     1.4519    69.3781    23.0101   187.3977
    4.1214     1.4618    69.5072    23.7832   189.5904
    4.1314     1.4718    69.6399    24.5977   191.8520
    4.1414     1.4819    69.7737    25.4563   194.1863
    4.1514     1.4922    69.9048    26.3644   196.5924
    4.1615     1.5026    70.0416    27.3229   199.0805
    4.1715     1.5131    70.1811    28.3384   201.6480
    4.1815     1.5237    70.3155    29.4145   204.3015
    4.1915     1.5345    70.4574    30.5565   207.0444
    4.2015     1.5454    70.5948    31.7705   209.8801
    4.2115     1.5564    70.7342    33.0628   212.8125
    4.2215     1.5676    70.8768    34.4402   215.8464
    4.2315     1.5790    71.0163    35.9108   218.9850
    4.2416     1.5904    71.1641    37.4828   222.2330
    4.2516     1.6020    71.3064    39.1669   225.5927
    4.2616     1.6137    71.4568    40.9727   229.0681
    4.2716     1.6256    71.6041    42.9126   232.6612
    4.2816     1.6377    71.7514    44.9988   236.3728
    4.2916     1.6499    71.9018    47.2434   240.2052
    4.3016     1.6623    72.0529    49.6592   244.1559
    4.3116     1.6748    72.2090    52.2571   248.2231
    4.3217     1.6876    72.3630    55.0482   252.4014
    4.3317     1.7005    72.5182    58.0376   256.6849
    4.3417     1.7136    72.6731    61.2283   261.0663
    4.3517     1.7269    72.8305    64.6179   265.5398
    4.3617     1.7403    72.9896    68.2001   270.1048
    4.3717     1.7540    73.1506    71.9671   274.7703
    4.3817     1.7679    73.3127    75.9119   279.5592
    4.3917     1.7819    73.4753    80.0357   284.5116
    4.4018     1.7961    73.6444    84.3492   289.6779
    4.4118     1.8107    73.8036    88.8877   295.1187
    4.4218     1.8254    73.9740    93.7046   300.8864
    4.4318     1.8403    74.1432    98.8792   307.0298
    4.4418     1.8554    74.3141   104.5066   313.5831
    4.4518     1.8706    74.4873   110.6910   320.5672
    4.4618     1.8862    74.6572   117.5411   327.9926
    4.4718     1.9018    74.8337   125.1685   335.8519
    4.4819     1.9176    75.0081   133.6906   344.1307
    4.4919     1.9336    75.1848   143.2336   352.8022
    4.5019     1.9497    75.3655   153.9396   361.8227
    4.5119     1.9660    75.5489   165.9654   371.1447
    4.5219     1.9825    75.7296   179.4877   380.6998
    4.5319     1.9992    75.9203   194.7196   390.3840
    4.5419     2.0163    76.1008   211.8770   400.0798
    4.5519     2.0335    76.2945   231.2313   409.5953
    4.5620     2.0511    76.4799   253.0515   418.6992
    4.5720     2.0689    76.6745   277.6560   427.0486
    4.5820     2.0870    76.8686   305.3507   434.2061
    4.5920     2.1055    77.0633   336.4250   439.5944
    4.6020     2.1242    77.2626   371.1257   442.4503
    4.6120     2.1434    77.4612   409.5817   441.8160
    4.6220     2.1628    77.6608   451.7109   436.5200
    4.6320     2.1825    77.8651   497.1338   425.1537
    4.6421     2.2026    78.0730   544.9817   406.2049
    4.6521     2.2231    78.2789   593.7602   378.2092
    4.6621     2.2438    78.4921   641.2897   339.8681
    4.6721     2.2650    78.6998   684.6556   290.7518
    4.6821     2.2866    78.9142   720.5104   231.2134
    4.6921     2.3084    79.1319   745.4879   163.1052
    4.7021     2.3308    79.3490   756.9892    89.6955
    4.7121     2.3534    79.5735   753.6189    14.9912
    4.7222     2.3767    79.7923   735.9594   -56.4382
    4.7322     2.4002    80.0194   705.7449  -121.0272
    4.7422     2.4242    80.2482   666.1539  -176.0649
    4.7522     2.4487    80.4737   620.6673  -220.3553
    4.7622     2.4736    80.7116   572.1761  -253.9667
    4.7722     2.4991    80.9432   523.7169  -277.7839
    4.7822     2.5250    81.1805   476.8133  -293.1786
    4.7922     2.5514    81.4243   432.7392  -301.6724
    4.8023     2.5786    81.6603   392.2974  -304.8151
    4.8123     2.6062    81.9079   355.4421  -303.7790
    4.8223     2.6343    82.1585   322.2953  -299.7021
    4.8323     2.6632    82.4070   292.7061  -293.4877
    4.8423     2.6926    82.6649   266.2848  -285.7184
    4.8523     2.7229    82.9149   242.8764  -277.0453
    4.8623     2.7537    83.1757   222.0163  -267.7080
    4.8723     2.7854    83.4382   203.4759  -258.0563
    4.8824     2.8179    83.7010   186.9958  -248.3193
    4.8924     2.8510    83.9749   172.2794  -238.5771
    4.9024     2.8853    84.2416   159.1627  -229.0126
    4.9124     2.9204    84.5178   147.4315  -219.6678
    4.9224     2.9566    84.7957   136.8853  -210.5338
    4.9324     2.9938    85.0747   127.4493  -201.7675
    4.9424     3.0321    85.3599   118.9101  -193.2250
    4.9524     3.0714    85.6476   111.2291  -185.0526
    4.9625     3.1120    85.9374   104.2680  -177.1647
    4.9725     3.1535    86.2313    97.9601  -169.5922
    4.9825     3.1962    86.5243    92.2347  -162.3319
    4.9925     3.2396    86.8228    87.0158  -155.3432
    5.0025     3.2836    87.1246    82.2557  -148.6315
    5.0125     3.3281    87.4272    77.9105  -142.1964
    5.0225     3.3725    87.7366    73.9255  -135.9882
    5.0325     3.4168    88.0459    70.2805  -130.0438
    5.0426     3.4608    88.3607    66.9299  -124.3090
    5.0526     3.5045    88.6800    63.8518  -118.7914
    5.0626     3.5484    88.9993    61.0293  -113.5076
    5.0726     3.5923    89.3332    58.4134  -108.3525
    5.0826     3.6371    89.6661    56.0095  -103.4009
   5.09262    3.68293   90.00456   53.79401  -98.62125
   5.10263    3.73012   90.35308   51.74472  -93.97618
   5.11264    3.77917   90.70321   49.85982  -89.50294
   5.12265    3.83018   91.06027   48.11841  -85.15697
   5.13267    3.88344   91.42039   46.51408  -80.94762
   5.14268    3.93896   91.78836   45.03527  -76.85780
   5.15269    3.99677   92.16738   43.66455  -72.83920
   5.16270    4.05745   92.54465   42.41401  -68.97120
   5.17272    4.12088   92.92702   41.26484  -65.19197
   5.18273    4.18702   93.31938   40.21016  -61.48922
   5.19274    4.25640   93.70942   39.25371  -57.89701
   5.20275    4.32858   94.11128   38.37878  -54.35058
   5.21277    4.40392   94.51521   37.59084  -50.88750
   5.22278    4.48234   94.92115   36.88644  -47.50148
   5.23279    4.56334   95.33505   36.25632  -44.15440
   5.24280    4.64680   95.74904   35.70740  -40.88722
   5.25282    4.73191   96.16656   35.23077  -37.66048
   5.26283    4.81765   96.59068   34.82755  -34.48426
   5.27284    4.90342   97.01198   34.49710  -31.35965
   5.28285    4.98755   97.44695   34.23338  -28.25975
   5.29287    5.07003   97.87942   34.04055  -25.20901
   5.30288    5.15003   98.32252   33.91444  -22.18873
   5.31289    5.22786   98.77735   33.85052  -19.17417
   5.32290    5.30482   99.23405   33.85995  -16.21492
   5.33292    5.38129   99.70992   33.93107  -13.23685
    5.3429     5.4591   100.1947    34.0747   -10.2699
    5.3529     5.5390   100.6953    34.2928    -7.2903
    5.3630     5.6224   101.2075    34.5933    -4.2963
    5.3730     5.7100   101.7293    34.9887    -1.3014
    5.3830     5.8024   102.2635    35.4833     1.7222
    5.3930     5.8999   102.8107    36.0896     4.7688
    5.4030     6.0031   103.3663    36.8188     7.8411
    5.4130     6.1119   103.9370    37.6817    10.9480
    5.4230     6.2268   104.5170    38.6937    14.0853
    5.4330     6.3480   105.1089    39.8714    17.2494
    5.4431     6.4755   105.7160    41.2269    20.4615
    5.4531     6.6102   106.3269    42.7913    23.6789
    5.4631     6.7517   106.9567    44.5754    26.9420
    5.4731     6.9007   107.5964    46.6117    30.2179
    5.4831     7.0577   108.2450    48.9302    33.4936
    5.4931     7.2224   108.9130    51.5556    36.7722
    5.5031     7.3960   109.5847    54.5310    40.0044
    5.5131     7.5777   110.2749    57.8824    43.1842
    5.5232     7.7682   110.9725    61.6481    46.2626
    5.5332     7.9671   111.6825    65.8631    49.1878
    5.5432     8.1735   112.4081    70.5412    51.9329
    5.5532     8.3872   113.1413    75.7331    54.3866
    5.5632     8.6070   113.8884    81.4380    56.5157
    5.5732     8.8318   114.6526    87.6805    58.2336
    5.5832     9.0617   115.4278    94.4937    59.4337
    5.5932     9.2961   116.2269   101.8807    60.0324
    5.6033     9.5363   117.0469   109.8769    59.8609
    5.6133     9.7844   117.8899   118.4702    58.7314
    5.6233    10.0424   118.7613   127.6011    56.3923
    5.6333    10.3139   119.6561   137.1216    52.5438
    5.6433    10.6008   120.5842   146.7468    46.8807
    5.6533    10.9065   121.5393   156.0399    39.1436
    5.6633    11.2336   122.5247   164.4281    29.1966
    5.6733    11.5843   123.5424   171.1893    17.1555
    5.6834    11.9618   124.5873   175.6953     3.3632
    5.6934    12.3682   125.6631   177.3583   -11.4847
    5.7034    12.8065   126.7708   175.9149   -26.5183
    5.7134    13.2808   127.9021   171.4985   -40.8500
    5.7234    13.7928   129.0696   164.4666   -53.6385
    5.7334    14.3477   130.2630   155.5054   -64.3703
    5.7434    14.9491   131.4858   145.3368   -72.8009
    5.7534    15.6021   132.7321   134.6229   -78.9310
    5.7635    16.3110   134.0025   123.9417   -82.9999
    5.7735    17.0815   135.2884   113.6585   -85.2735
    5.7835    17.9165   136.5917   104.0278   -86.0939
    5.7935    18.8219   137.8932    95.1883   -85.7934
    5.8035    19.7964   139.2006    87.1569   -84.5934
    5.8135    20.8429   140.4868    79.9649   -82.8192
    5.8235    21.9553   141.7521    73.5371   -80.5877
    5.8335    23.1264   142.9850    67.8175   -78.0627
    5.8436    24.3459   144.1747    62.7423   -75.3767
    5.8536    25.5991   145.3245    58.2298   -72.5845
    5.8636    26.8743   146.4335    54.2139   -69.7569
    5.8736    28.1607   147.5124    50.6292   -66.9292
    5.8836    29.4549   148.5665    47.4184   -64.1287
    5.8936    30.7562   149.6035    44.5334   -61.3815
    5.9036    32.0657   150.6246    41.9316   -58.7027
    5.9136    33.3796   151.6294    39.5711   -56.0750
    5.9237    34.6884   152.6121    37.4302   -53.5457
    5.9337    35.9696   153.5823    35.4650   -51.0216
    5.9437    37.2030   154.5428    33.6751   -48.6025
    5.9537    38.3629   155.5297    32.0326   -46.2219
    5.9637    39.4381   156.5855    30.5265   -43.8876
    5.9737    40.4376   157.7580    29.1511   -41.6257
    5.9837    41.3875   159.1040    27.8893   -39.3880
    5.9937    42.3354   160.6618    26.7377   -37.2054
    6.0038    43.3401   162.4526    25.6865   -35.0676
    6.0138    44.4599   164.4862    24.7274   -32.9689
    6.0238    45.7549   166.7459    23.8557   -30.9279
    6.0338    47.2691   169.2184    23.0619   -28.9232
    6.0438    49.0478   171.8692    22.3411   -26.9649
    6.0538    51.1196   174.6736    21.6898   -25.0664
    6.0638    53.5119   177.5971    21.0949   -23.1628
    6.0738    56.2437   180.6109    20.5628   -21.3389
    6.0839    59.3299   183.6859    20.0823   -19.5316
    6.0939    62.7806   186.8024    19.6526   -17.7605
    6.1039    66.6096   189.9423    19.2706   -16.0206
    6.1139    70.8335   193.1006    18.9342   -14.3124
    6.1239    75.4805   196.2787    18.6395   -12.6173
    6.1339    80.6067   199.4742    18.3879   -10.9608
    6.1439    86.2786   202.6825    18.1756    -9.3180
    6.1539    92.5986   205.8723    18.0045    -7.7177
    6.1640    99.6709   208.9831    17.8703    -6.1285
    6.1740   107.6195   211.9064    17.7731    -4.5618
    6.1840   116.5617   214.4829    17.7119    -3.0153
    6.1940   126.6045   216.4955    17.6841    -1.4771
  6.204      137.8      217.7      17.69     0.3591E-1
    6.2140   150.2734   217.6629    17.7308     1.5345
    6.2240   163.8755   216.0806    17.8037     3.0233
    6.2340   178.4699   212.4769    17.9130     4.4833
    6.2441   193.7076   206.3760    18.0571     5.9505
    6.2541   209.0533   197.3508    18.2396     7.4161
    6.2641   223.7343   185.0911    18.4662     8.8533
    6.2741   236.7969   169.5405    18.7348    10.2929
    6.2841   247.1946   150.9946    19.0505    11.6934
    6.2941   253.9652   130.1772    19.4074    13.0838
    6.3041   256.4281   108.1842    19.8041    14.4419
    6.3141   254.4005    86.3268    20.2312    15.7909
    6.3242   248.1310    65.8903    20.6838    17.1196
