#                                                           
# ooooo   oooo ..     ooo        ooo ooooooooo.    .oooo.   
#  `88.   .8" .88.    `88.       .88 `88"   `Y8b  dP"  `Yb  
#   `88. .8" .8"88.    888b     d"88  88     888 88      88 
#    `88.8" .8" `88.   8 Y88. .P  88  88oooo888" 88      88 
#     `88" .88ooo888.  8  `888"   88  88    `88b 88      88 
#      88 .8"     `88. 8    Y     88  88    .88P `8b    d8" 
#     o88o88o      888o8          88 o88bood8P"   `Ybod8P"  
#                                                           
#                                                           
#         Version 4.1.2 Revision 14094 Hash 25dd020         
#                         MPI Build                         
#                 http://www.yambo-code.org                 
#
# Polarizability ( -<<X>> ) [volume @ Q(1) [q->0 direction]0.5774E-5 0.5774E-5 0.5774E-5
#
#
# - Energies      are Teter 93(XC)
# - Wavefunctions are Teter 93(XC)
#
# - The Green`s function is Resonant -
# - Using the Length Gauge -
# - [r,Vnl] *is* included -
#
#   BSK|Identifier              :1144
#      |Dimension               :110
#      |Bands                   :14 - 34
#      |Exchange           [res]: yes
#      |Correlation        [res]: no
#      |Kernel`s coupling       : no
#      |Exchange           [cpl]: no
#      |Correlation        [cpl]: no
#      |W interaction is bare   : no
#      |ALDA kernel in R-space  : yes
#      |RL vectors    [exchange]:367
#      |E/h energy range    [ev]:-1.000000 - -1.000000
#      |Coupling range     [o/o]: 100.0000 -  100.0000
#  
#   Haydock|Accuracy (requested) [o/o]:   0.0050
#          |Accuracy (reached)   [o/o]:   0.0019
#          |Iteration                 :76
#
#  E/ev[1]    ALPHA-Im[2]ALPHA-Re[3]ALPHAo-Im[4ALPHAo-Re[5ALPHA`-Im[6ALPHA`-Re[7]
#
  3.000     0.1023E-1   60.26     0.4145E-1   101.7     0.1023E-1   60.26   
    3.0160     0.7820    60.3711     3.1120   102.3167     0.7820    60.3708
    3.0321     0.7982    60.1360     3.2377   101.5046     0.7982    60.1357
    3.0481     0.8053    60.1173     3.3105   101.5337     0.8053    60.1170
    3.0641     0.8119    60.1414     3.3791   101.7513     0.8119    60.1412
    3.0802     0.8183    60.1880     3.4468   102.0592     0.8183    60.1877
    3.0962     0.8248    60.2484     3.5148   102.4259     0.8248    60.2482
    3.1122     0.8312    60.3185     3.5838   102.8352     0.8312    60.3183
    3.1283     0.8377    60.3936     3.6540   103.2795     0.8377    60.3934
    3.1443     0.8442    60.4746     3.7259   103.7457     0.8442    60.4744
    3.1603     0.8507    60.5664     3.7992   104.2451     0.8507    60.5663
    3.1764     0.8573    60.6573     3.8745   104.7612     0.8573    60.6571
    3.1924     0.8640    60.7523     3.9520   105.2950     0.8640    60.7520
    3.2084     0.8708    60.8465     4.0316   105.8499     0.8708    60.8462
    3.2244     0.8776    60.9505     4.1134   106.4263     0.8776    60.9503
    3.2405     0.8845    61.0524     4.1977   107.0155     0.8845    61.0521
    3.2565     0.8914    61.1565     4.2846   107.6247     0.8914    61.1562
    3.2725     0.8985    61.2645     4.3740   108.2535     0.8985    61.2643
    3.2886     0.9057    61.3693     4.4665   108.8950     0.9057    61.3690
    3.3046     0.9129    61.4826     4.5618   109.5582     0.9129    61.4823
    3.3206     0.9202    61.5947     4.6603   110.2368     0.9202    61.5945
    3.3367     0.9276    61.7099     4.7620   110.9359     0.9276    61.7097
    3.3527     0.9352    61.8260     4.8671   111.6508     0.9352    61.8257
    3.3687     0.9428    61.9433     4.9759   112.3859     0.9428    61.9431
    3.3848     0.9505    62.0629     5.0885   113.1384     0.9505    62.0626
    3.4008     0.9583    62.1845     5.2049   113.9127     0.9583    62.1843
    3.4168     0.9662    62.3052     5.3257   114.7035     0.9662    62.3050
    3.4329     0.9742    62.4331     5.4507   115.5191     0.9742    62.4329
    3.4489     0.9824    62.5578     5.5804   116.3527     0.9824    62.5576
    3.4649     0.9906    62.6873     5.7149   117.2107     0.9906    62.6870
    3.4810     0.9990    62.8172     5.8545   118.0904     0.9990    62.8171
    3.4970     1.0074    62.9486     5.9995   118.9940     1.0074    62.9483
    3.5130     1.0160    63.0793     6.1502   119.9189     1.0160    63.0790
    3.5291     1.0248    63.2126     6.3070   120.8691     1.0248    63.2124
    3.5451     1.0335    63.3547     6.4698   121.8493     1.0335    63.3544
    3.5611     1.0425    63.4918     6.6394   122.8536     1.0425    63.4915
    3.5772     1.0516    63.6243     6.8164   123.8814     1.0516    63.6241
    3.5932     1.0608    63.7673     7.0003   124.9445     1.0608    63.7671
    3.6092     1.0702    63.9139     7.1921   126.0385     1.0702    63.9137
    3.6253     1.0796    64.0606     7.3926   127.1589     1.0796    64.0604
    3.6413     1.0893    64.2067     7.6018   128.3132     1.0893    64.2065
    3.6573     1.0990    64.3540     7.8203   129.5021     1.0990    64.3538
    3.6733     1.1090    64.5020     8.0490   130.7242     1.1090    64.5018
    3.6894     1.1190    64.6533     8.2883   131.9833     1.1190    64.6531
    3.7054     1.1292    64.8110     8.5387   133.2833     1.1292    64.8108
    3.7214     1.1396    64.9627     8.8011   134.6225     1.1396    64.9624
    3.7375     1.1502    65.1199     9.0765   136.0030     1.1502    65.1196
    3.7535     1.1608    65.2825     9.3656   137.4269     1.1608    65.2822
    3.7695     1.1717    65.4474     9.6691   138.8992     1.1717    65.4472
    3.7856     1.1827    65.6066     9.9887   140.4152     1.1827    65.6064
    3.8016     1.1940    65.7668    10.3248   141.9852     1.1940    65.7666
    3.8176     1.2054    65.9346    10.6789   143.6076     1.2054    65.9343
    3.8337     1.2170    66.1047    11.0524   145.2860     1.2170    66.1045
    3.8497     1.2287    66.2765    11.4467   147.0225     1.2287    66.2762
    3.8657     1.2407    66.4478    11.8633   148.8215     1.2407    66.4476
    3.8818     1.2528    66.6237    12.3039   150.6875     1.2528    66.6235
    3.8978     1.2652    66.7963    12.7712   152.6180     1.2652    66.7961
    3.9138     1.2778    66.9774    13.2662   154.6250     1.2778    66.9771
    3.9299     1.2905    67.1603    13.7916   156.7103     1.2905    67.1600
    3.9459     1.3036    67.3409    14.3509   158.8730     1.3036    67.3407
    3.9619     1.3168    67.5268    14.9461   161.1232     1.3168    67.5265
    3.9780     1.3302    67.7156    15.5807   163.4658     1.3302    67.7154
    3.9940     1.3439    67.9057    16.2584   165.9051     1.3439    67.9054
    4.0100     1.3579    68.0957    16.9832   168.4478     1.3579    68.0954
    4.0261     1.3721    68.2895    17.7594   171.1021     1.3721    68.2893
    4.0421     1.3864    68.4916    18.5922   173.8742     1.3864    68.4912
    4.0581     1.4012    68.6873    19.4887   176.7682     1.4012    68.6872
    4.0741     1.4161    68.8933    20.4542   179.7979     1.4161    68.8931
    4.0902     1.4314    69.0966    21.4969   182.9698     1.4314    69.0964
    4.1062     1.4469    69.3003    22.6251   186.2954     1.4469    69.3001
    4.1222     1.4627    69.5080    23.8493   189.7841     1.4628    69.5077
    4.1383     1.4788    69.7222    25.1800   193.4509     1.4788    69.7219
    4.1543     1.4952    69.9397    26.6320   197.3054     1.4952    69.9396
    4.1703     1.5120    70.1565    28.2204   201.3626     1.5120    70.1562
    4.1864     1.5291    70.3756    29.9646   205.6363     1.5291    70.3754
    4.2024     1.5465    70.6012    31.8848   210.1442     1.5465    70.6010
    4.2184     1.5642    70.8270    34.0090   214.8996     1.5642    70.8268
    4.2345     1.5823    71.0546    36.3679   219.9195     1.5823    71.0544
    4.2505     1.6009    71.2842    38.9980   225.2197     1.6009    71.2840
    4.2665     1.6197    71.5188    41.9432   230.8131     1.6197    71.5186
    4.2826     1.6390    71.7577    45.2533   236.7101     1.6390    71.7575
    4.2986     1.6587    72.0002    48.9788   242.9168     1.6587    72.0000
    4.3146     1.6787    72.2469    53.1661   249.4303     1.6787    72.2466
    4.3307     1.6993    72.4913    57.8457   256.2352     1.6993    72.4911
    4.3467     1.7204    72.7400    63.0191   263.3008     1.7204    72.7397
    4.3627     1.7419    72.9960    68.6703   270.5978     1.7419    72.9959
    4.3788     1.7639    73.2532    74.7805   278.1467     1.7639    73.2530
    4.3948     1.7864    73.5138    81.3528   286.0702     1.7864    73.5136
    4.4108     1.8095    73.7803    88.4502   294.5772     1.8095    73.7800
    4.4269     1.8331    74.0493    96.2646   303.8905     1.8331    74.0490
    4.4429     1.8572    74.3224   105.1366   314.1864     1.8572    74.3222
    4.4589     1.8817    74.6000   115.4945   325.5863     1.8817    74.5998
    4.4749     1.9068    74.8805   127.7790   338.1338     1.9068    74.8803
    4.4910     1.9322    75.1641   142.4508   351.7755     1.9322    75.1639
    4.5070     1.9581    75.4528   160.0511   366.3560     1.9581    75.4525
    4.5230     1.9845    75.7463   181.2463   381.6277     1.9845    75.7460
    4.5391     2.0115    76.0410   206.8642   397.2022     2.0115    76.0409
    4.5551     2.0392    76.3411   237.9004   412.4539     2.0392    76.3409
    4.5711     2.0676    76.6495   275.5211   426.3611     2.0676    76.6492
    4.5872     2.0967    76.9626   320.9950   437.2735     2.0967    76.9623
    4.6032     2.1267    77.2781   375.4651   442.6428     2.1267    77.2778
    4.6192     2.1574    77.6012   439.5127   438.6558     2.1574    77.6010
    4.6353     2.1890    77.9282   512.2465   420.1381     2.1890    77.9279
    4.6513     2.2216    78.2590   589.9553   380.9955     2.2216    78.2587
    4.6673     2.2550    78.5931   664.7467   315.8597     2.2550    78.5929
    4.6834     2.2894    78.9360   724.4091   223.4891     2.2894    78.9357
    4.6994     2.3248    79.2836   755.5324   110.4796     2.3248    79.2834
    4.7154     2.3612    79.6372   749.7491    -8.6030     2.3612    79.6369
    4.7315     2.3986    79.9979   708.6680  -116.5190     2.3986    79.9977
    4.7475     2.4373    80.3633   642.9189  -200.8289     2.4373    80.3632
    4.7635     2.4771    80.7329   566.1934  -257.6371     2.4771    80.7326
    4.7796     2.5182    81.1100   489.4245  -289.8707     2.5182    81.1098
    4.7956     2.5607    81.4936   419.1231  -303.3752     2.5607    81.4933
    4.8116     2.6045    81.8850   357.9356  -304.0773     2.6045    81.8847
    4.8277     2.6500    82.2788   306.2103  -296.7495     2.6500    82.2786
    4.8437     2.6970    82.6844   263.0804  -284.7447     2.6970    82.6842
    4.8597     2.7458    83.1000   227.3330  -270.3024     2.7458    83.0997
    4.8758     2.7966    83.5180   197.7524  -254.8734     2.7966    83.5178
    4.8918     2.8494    83.9461   173.1848  -239.2735     2.8494    83.9459
    4.9078     2.9045    84.3828   152.6951  -224.0061     2.9045    84.3825
    4.9238     2.9621    84.8250   135.5348  -209.3794     2.9622    84.8247
    4.9399     3.0225    85.2758   121.0619  -195.4883     3.0225    85.2754
    4.9559     3.0856    85.7365   108.7844  -182.3820     3.0857    85.7363
    4.9719     3.1516    86.2053    98.3168  -170.0773     3.1516    86.2050
    4.9880     3.2202    86.6774    89.3429  -158.5440     3.2202    86.6772
    5.0040     3.2906    87.1599    81.6095  -147.7338     3.2906    87.1597
    5.0200     3.3617    87.6515    74.9080  -137.5787     3.3617    87.6512
    5.0361     3.4326    88.1464    69.0904  -128.0701     3.4326    88.1463
    5.0521     3.5027    88.6572    64.0135  -119.1242     3.5027    88.6570
    5.0681     3.5729    89.1774    59.5658  -110.6744     3.5729    89.1771
    5.0842     3.6444    89.7117    55.6693  -102.7082     3.6444    89.7113
   5.10020    3.71880   90.25965   52.24632  -95.16398    3.71881   90.25935
   5.11623    3.79750   90.82295   49.23324  -87.98493    3.79751   90.82274
   5.13226    3.88146   91.40044   46.58811  -81.16376    3.88147   91.40027
   5.14830    3.97138   91.99248   44.26364  -74.63826    3.97140   91.99216
   5.16433    4.06781   92.60007   42.23093  -68.39643    4.06782   92.59972
   5.18036    4.17141   93.21873   40.45922  -62.39347    4.17142   93.21853
   5.19639    4.28264   93.84927   38.93114  -56.62440    4.28265   93.84900
   5.21242    4.40168   94.49268   37.62582  -51.04879    4.40169   94.49239
   5.22846    4.52834   95.14683   36.52733  -45.63251    4.52835   95.14658
   5.24449    4.66139   95.81113   35.62978  -40.37732    4.66140   95.81090
   5.26052    4.79835   96.48168   34.92352  -35.25746    4.79836   96.48143
   5.27655    4.93518   97.16468   34.39994  -30.24718    4.93519   97.16444
   5.29258    5.06798   97.86222   34.05223  -25.32754    5.06799   97.86194
   5.30862    5.19524   98.57420   33.87835  -20.49802    5.19525   98.57394
   5.32465    5.31837   99.31193   33.87334  -15.72085    5.31838   99.31178
    5.3407     5.4417   100.0807    34.0413   -10.9574     5.4417   100.0806
    5.3567     5.5704   100.8803    34.4036    -6.1954     5.5704   100.8801
    5.3727     5.7085   101.7095    34.9872    -1.4002     5.7085   101.7093
    5.3888     5.8588   102.5702    35.8291     3.4508     5.8588   102.5700
    5.4048     6.0227   103.4621    36.9720     8.3734     6.0227   103.4619
    5.4208     6.2017   104.3819    38.4692    13.3669     6.2017   104.3818
    5.4369     6.3966   105.3321    40.3781    18.4465     6.3966   105.3320
    5.4529     6.6083   106.3134    42.7736    23.6069     6.6084   106.3131
    5.4689     6.8385   107.3226    45.7503    28.8198     6.8385   107.3224
    5.4850     7.0883   108.3629    49.4126    34.0678     7.0883   108.3627
    5.5010     7.3589   109.4344    53.8925    39.2722     7.3590   109.4342
    5.5170     7.6513   110.5395    59.3272    44.3347     7.6513   110.5391
    5.5331     7.9655   111.6708    65.8637    49.0795     7.9655   111.6706
    5.5491     8.2997   112.8337    73.6153    53.3128     8.2997   112.8335
    5.5651     8.6503   114.0305    82.6816    56.7588     8.6503   114.0302
    5.5812     9.0143   115.2626    93.1493    59.0949     9.0143   115.2624
    5.5972     9.3907   116.5436   105.0987    59.9178     9.3907   116.5432
    5.6132     9.7839   117.8833   118.5743    58.6006     9.7839   117.8831
    5.6293    10.2034   119.2890   133.3660    54.1910    10.2034   119.2888
    5.6453    10.6605   120.7682   148.6435    45.4858    10.6605   120.7679
    5.6613    11.1667   122.3241   162.7176    31.4242    11.1667   122.3239
    5.6774    11.7329   123.9557   173.0630    11.9347    11.7329   123.9554
    5.6934    12.3699   125.6632   177.0755   -11.3325    12.3699   125.6630
    5.7094    13.0888   127.4490   173.3500   -35.1136    13.0888   127.4488
    5.7255    13.9034   129.3105   162.6080   -55.8486    13.9034   129.3103
    5.7415    14.8295   131.2432   147.3035   -71.2461    14.8295   131.2430
    5.7575    15.8851   133.2417   130.2414   -80.7893    15.8851   133.2416
    5.7735    17.0894   135.2961   113.5853   -85.2772    17.0894   135.2959
    5.7896    18.4620   137.3780    98.5686   -86.0536    18.4620   137.3777
    5.8056    20.0145   139.4604    85.6101   -84.3234    20.0145   139.4604
    5.8216    21.7449   141.5034    74.7210   -81.0946    21.7450   141.5032
    5.8377    23.6293   143.4667    65.6770   -77.0386    23.6295   143.4663
    5.8537    25.6213   145.3269    58.1917   -72.6042    25.6213   145.3267
    5.8697    27.6690   147.0886    51.9823   -68.0824    27.6690   147.0883
    5.8858    29.7399   148.7817    46.7873   -63.5989    29.7399   148.7816
    5.9018    31.8306   150.4291    42.4038   -59.2537    31.8306   150.4290
    5.9178    33.9343   152.0318    38.6673   -55.0836    33.9345   152.0319
    5.9339    35.9986   153.5927    35.4407   -51.0353    35.9989   153.5924
    5.9499    37.9317   155.1535    32.6484   -47.1710    37.9313   155.1530
    5.9659    39.6603   156.8468    30.2200   -43.4353    39.6598   156.8470
    5.9820    41.2118   158.8730    28.1106   -39.8184    41.2124   158.8736
    5.9980    42.7435   161.4125    26.2847   -36.3241    42.7445   161.4123
    6.0140    44.4896   164.5513    24.7107   -32.9615    44.4895   164.5502
    6.0301    46.6820   168.2722    23.3554   -29.7100    46.6808   168.2717
    6.0461    49.5102   172.4834    22.1921   -26.5666    49.5096   172.4845
    6.0621    53.1119   177.0620    21.1979   -23.5282    53.1132   177.0631
    6.0782    57.5775   181.8859    20.3546   -20.5960    57.5793   181.8853
    6.0942    62.9639   186.8502    19.6444   -17.7419    62.9635   186.8480
    6.1102    69.3209   191.8858    19.0568   -14.9710    69.3186   191.8844
    6.1263    76.7467   196.9713    18.5820   -12.2698    76.7449   196.9733
    6.1423    85.4445   202.1049    18.2135    -9.6351    85.4466   202.1085
    6.1583    95.7469   207.2106    17.9454    -7.0557    95.7507   207.2106
    6.1743   108.0802   211.9973    17.7747    -4.5411   108.0821   211.9921
    6.1904   122.8993   215.8410    17.6946    -2.0675   122.8959   215.8365
    6.2064   140.6177   217.7402    17.7022     0.3582   140.6116   217.7431
    6.2224   161.4084   216.3309    17.7949     2.7463   161.4068   216.3396
    6.2385   184.8192   209.9178    17.9767     5.0980   184.8270   209.9217
    6.2545   209.3264   196.6677    18.2545     7.4335   209.3352   196.6589
    6.2705   232.0305   175.2529    18.6396     9.7443   232.0262   175.2402
    6.2866   248.9069   145.9438    19.1399    11.9990   248.8917   145.9461
    6.3026   256.1137   111.5366    19.7457    14.2058   256.1129   111.5534
    6.3186   251.9328    76.9274    20.4362    16.3583   251.9443    76.9340
    6.3347   237.7919    47.1175    21.1867    18.4574   237.8007    47.1071
    6.3507   217.3489    25.1796    21.9843    20.5629   217.3452    25.1671
    6.3667   194.6264    11.6939    22.8576    22.7158   194.6172    11.6919
    6.3828   172.6877     5.5180    23.8727    24.9725   172.6820     5.5255
    6.3988   153.2857     4.8535    25.1293    27.3045   153.2890     4.8609
    6.4148   137.1548     7.9465    26.7202    29.7198   137.1613     7.9490
    6.4309   124.4091    13.3725    28.7455    32.1134   124.4149    13.3693
    6.4469   114.8609    20.0718    31.2938    34.3566   114.8627    20.0654
    6.4629   108.1985    27.2816    34.4282    36.3009   108.1952    27.2761
    6.4790   104.0709    34.4331    38.1710    37.7170   104.0646    34.4312
    6.4950   102.1048    41.0671    42.4509    38.3046   102.0988    41.0711
    6.5110   101.8496    46.8608    47.0295    37.7376   101.8493    46.8686
    6.5271   102.8010    51.6624    51.4323    35.7855   102.8087    51.6696
    6.5431   104.5095    55.5563    54.9910    32.4440   104.5221    55.5557
    6.5591   106.7738    58.8276    57.0419    28.0886   106.7819    58.8158
    6.5752   109.7448    61.7816    57.2271    23.4915   109.7383    61.7648
    6.5912   113.8466    64.4551    55.7173    19.5162   113.8259    64.4479
    6.6072   119.5148    66.4645    53.1177    16.7640   119.4958    66.4794
    6.6232   126.9063    67.0577    50.1536    15.3958   126.9118    67.0886
    6.6393   135.7246    65.2628    47.3912    15.1986   135.7602    65.2815
    6.6553   145.1333    60.1256    45.1238    15.7811   145.1696    60.1018
    6.6713   153.7518    51.0405    43.3911    16.7695   153.7443    50.9854
    6.6874   159.8116    38.1401    42.0613    17.9551   159.7566    38.1133
    6.7034   161.6037    22.5926    40.9762    19.2674   161.5579    22.6344
    6.7194   158.1736     6.5328    40.0608    20.7633   158.1933     6.5998
    6.7355   149.8827    -7.6312    39.3734    22.5302   149.9480    -7.6106
    6.7515   138.2638   -18.1409    39.0641    24.6044   138.3089   -18.1849
    6.7675   125.3249   -24.4498    39.3090    26.8965   125.3118   -24.5146
