#                                                           
#  **    **    **     ****     ****  ******     *******     
# //**  **    ****   /**/**   **/** /*////**   **/////**    
#  //****    **//**  /**//** ** /** /*   /**  **     //**   
#   //**    **  //** /** //***  /** /******  /**      /**   
#    /**   **********/**  //*   /** /*//// **/**      /**   
#    /**  /**//////**/**   /    /** /*    /**//**     **    
#    /**  /**     /**/**        /** /*******  //*******     
#    //   //      // //         //  ///////    ///////      
#                                                           
#        Version 4.1.1 Revision 14052 Hash e109ff3          
#                        MPI Build                          
#                http://www.yambo-code.org                  
#
# Polarizability ( -<<X>> ) [volume @ Q(1) [q->0 direction]0.5774E-5 0.5774E-5 0.5774E-5
#
#
# - Energies      are GoWo Plasmon Pole appox.
# - Wavefunctions are Teter 93(XC)
#
# - The Green`s function is Resonant -
# - Using the Length Gauge -
# - [r,Vnl] *is* included -
#
#   BSK|Identifier              :8077
#      |Dimension               :110
#      |Bands                   :14 - 34
#      |Exchange           [res]: yes
#      |Correlation        [res]: yes
#      |Kernel`s coupling       : no
#      |Exchange           [cpl]: no
#      |Correlation        [cpl]: no
#      |W interaction is bare   : no
#      |ALDA kernel in R-space  : no
#      |RL vectors    [exchange]:367
#      |RL vectors [correlation]:87
#      |E/h energy range    [ev]:-1.000000 - -1.000000
#      |Coupling range     [o/o]: 100.0000 -  100.0000
#    W |Interaction is diagonal : no
#      |Matrix size             :367
#      |Bands                   :1 - 50
#      |e/h energy range    [ev]:-1.000000 - -1.000000
#      |Poles              [o/o]: 100.0000
#      |RL vectors in the sum   :17279
#      |[r,Vnl] included        : yes
#      |Field direction         :0.1000E-4  0.000000  0.000000
#      |Coulomb Cutoff          :none
#      |xc-Kernel               :none
#   RIM|RL components      [col]:0
#      |Random points      [col]:0
#
#  E/ev[1]    ALPHA-Im[2]ALPHA-Re[3]ALPHAo-Im[4ALPHAo-Re[5]
#
  5.000     0.3741E-1   83.36     0.7812E-2   55.20   
   5.02004    3.54053   83.68608    0.70695   55.33285
   5.04008    3.48650   82.41129    0.72074   55.15699
   5.06012    3.37103   82.19272    0.72762   55.17371
   5.08016    3.26355   82.23862    0.73417   55.23273
   5.10020    3.17215   82.42446    0.74063   55.31368
   5.12024    3.10063   82.70094    0.74710   55.40565
   5.14028    3.05226   83.04239    0.75359   55.50773
   5.16032    3.02848   83.43195    0.76014   55.61511
   5.18036    3.02878   83.85859    0.76673   55.72980
   5.20040    3.05175   84.31557    0.77341   55.84682
   5.22044    3.09626   84.79617    0.78016   55.96877
   5.24048    3.16191   85.29905    0.78698   56.09299
   5.26052    3.24942   85.82153    0.79391   56.21884
   5.28056    3.36075   86.36563    0.80089   56.35209
   5.30060    3.49951   86.92704    0.80797   56.48520
   5.32064    3.67102   87.50567    0.81515   56.62011
   5.34068    3.88274   88.09930    0.82243   56.75850
   5.36072    4.14456   88.70334    0.82981   56.89757
   5.38076    4.46886   89.30154    0.83728   57.03911
   5.40080    4.86830   89.87534    0.84485   57.18407
   5.42084    5.35097   90.38642    0.85254   57.32969
   5.44088    5.90722   90.78666    0.86033   57.47805
   5.46092    6.48926   91.01482    0.86823   57.62911
   5.48096    6.99307   91.03745    0.87624   57.78176
   5.50100    7.28093   90.90792    0.88438   57.93521
   5.52104    7.26807   90.75712    0.89262   58.09196
   5.54108    6.99426   90.74752    0.90099   58.24981
   5.56112    6.58883   90.96548    0.90948   58.41030
   5.58116    6.17554   91.41135    0.91812   58.56973
   5.60120    5.82485   92.02795    0.92686   58.73476
   5.62124    5.55973   92.75930    0.93573   58.90259
   5.64128    5.37834   93.56416    0.94474   59.07079
   5.66132    5.27014   94.41646    0.95391   59.23872
   5.68136    5.22371   95.30277    0.96318   59.41377
   5.70140    5.22974   96.21506    0.97262   59.58773
   5.72144    5.28170   97.14993    0.98222   59.76283
   5.74148    5.37562   98.10934    0.99194   59.94249
   5.76152    5.51017   99.09381    1.00181   60.12531
    5.7816     5.6865   100.1023     1.0119    60.3079
    5.8016     5.9079   101.1392     1.0220    60.4964
    5.8216     6.1804   102.2006     1.0324    60.6840
    5.8417     6.5120   103.2862     1.0430    60.8722
    5.8617     6.9127   104.3848     1.0537    61.0650
    5.8818     7.3916   105.4816     1.0645    61.2616
    5.9018     7.9507   106.5507     1.0756    61.4573
    5.9218     8.5751   107.5654     1.0869    61.6531
    5.9419     9.2242   108.5050     1.0983    61.8567
    5.9619     9.8438   109.3860     1.1099    62.0606
    5.9820    10.4080   110.2647     1.1217    62.2679
    6.0020    10.9543   111.1967     1.1338    62.4748
    6.0220    11.5576   112.1859     1.1460    62.6889
    6.0421    12.2708   113.1778     1.1584    62.9017
    6.0621    13.0900   114.0958     1.1711    63.1177
    6.0822    13.9616   114.8718     1.1840    63.3373
    6.1022    14.7979   115.4680     1.1971    63.5614
    6.1222    15.4735   115.8905     1.2104    63.7882
    6.1423    15.8470   116.2410     1.2240    64.0141
    6.1623    15.8680   116.7113     1.2379    64.2436
    6.1824    15.6492   117.4911     1.2520    64.4776
    6.2024    15.3908   118.6492     1.2663    64.7150
    6.2224    15.2505   120.1343     1.2809    64.9532
    6.2425    15.2947   121.8468     1.2958    65.1935
    6.2625    15.5239   123.7139     1.3109    65.4413
    6.2826    15.9279   125.6967     1.3264    65.6877
    6.3026    16.5167   127.7793     1.3421    65.9432
    6.3226    17.3132   129.9221     1.3582    66.1932
    6.3427    18.3145   132.0674     1.3745    66.4558
    6.3627    19.4683   134.1621     1.3912    66.7146
    6.3828    20.6828   136.2000     1.4082    66.9818
    6.4028    21.8724   138.2492     1.4256    67.2476
    6.4228    23.0185   140.4361     1.4433    67.5181
    6.4429    24.2070   142.8949     1.4613    67.7957
    6.4629    25.6141   145.6909     1.4797    68.0793
    6.4830    27.4394   148.7942     1.4985    68.3603
    6.5030    29.8556   152.0755     1.5177    68.6432
    6.5230    32.9821   155.3397     1.5372    68.9359
    6.5431    36.8606   158.3248     1.5572    69.2335
    6.5631    41.3904   160.7361     1.5775    69.5340
    6.5832    46.2763   162.3277     1.5984    69.8364
    6.6032    51.1049   163.0327     1.6197    70.1407
    6.6232    55.5607   163.0253     1.6414    70.4568
    6.6433    59.5797   162.5688     1.6636    70.7730
    6.6633    63.2049   161.7644     1.6863    71.0934
    6.6834    66.2481   160.5391     1.7095    71.4167
    6.7034    68.2097   159.0295     1.7332    71.7489
    6.7234    68.7619   157.9341     1.7575    72.0834
    6.7435    68.2609   158.2228     1.7822    72.4250
    6.7635    67.6393   160.4398     1.8076    72.7700
    6.7836    67.8648   164.4618     1.8336    73.1169
    6.8036    69.5864   169.7533     1.8602    73.4726
    6.8236    73.0764   175.6697     1.8873    73.8357
    6.8437    78.2889   181.6259     1.9152    74.2010
    6.8637    84.9643   187.2036     1.9437    74.5732
    6.8838    92.8134   192.2331     1.9729    74.9539
    6.9038   101.6669   196.7800     2.0028    75.3363
    6.9238   111.5719   201.0553     2.0335    75.7256
    6.9439   122.9199   205.3292     2.0649    76.1214
    6.9639   136.5253   209.5780     2.0971    76.5258
    6.9840   153.4272   212.8447     2.1301    76.9337
    7.0040   174.3567   213.0169     2.1640    77.3497
    7.0240   198.8029   207.3559     2.1988    77.7734
    7.0441   224.0206   193.6184     2.2344    78.2039
    7.0641   245.4249   171.7919     2.2711    78.6408
    7.0842   259.2745   145.1704     2.3086    79.0863
    7.1042   265.4608   118.3905     2.3473    79.5383
    7.1242   266.8820    93.9147     2.3870    79.9968
    7.1443   266.2332    70.9572     2.4277    80.4663
    7.1643   263.7413    47.3680     2.4696    80.9433
    7.1844   257.3539    22.3125     2.5127    81.4286
    7.2044   244.9285    -2.2855     2.5570    81.9225
    7.2244   226.6251   -23.0685     2.6026    82.4238
    7.2445   204.7626   -37.9451     2.6496    82.9355
    7.2645   181.7723   -46.7884     2.6979    83.4560
    7.2846   159.3028   -50.2166     2.7477    83.9889
    7.3046   138.6362   -48.9433     2.7990    84.5291
    7.3246   120.8086   -43.9752     2.8519    85.0812
    7.3447   106.3625   -36.5838     2.9064    85.6429
   7.36473   95.31990  -27.99522    2.96264   86.21842
   7.38477   87.36848  -19.18842    3.02070   86.80297
   7.40481   82.02485  -10.91230    3.08063   87.39971
   7.42485   78.64997   -3.73168    3.14258   88.00715
   7.44489   76.39133    2.05244    3.20660   88.62749
   7.46493   74.29354    6.56763    3.27272   89.26382
   7.48497   71.69021   10.49485    3.34123   89.91037
   7.50501   68.61446   14.74290    3.41215   90.57129
   7.52505   65.67531   19.90420    3.48558   91.24804
   7.54509   63.57539   26.01985    3.56177   91.93803
   7.56513   62.79394   32.79910    3.64094   92.64030
   7.58517   63.59446   39.85191    3.72303   93.36342
   7.60521   66.13309   46.80698    3.80847   94.10109
   7.62525   70.55753   53.25097    3.89746   94.85564
   7.64529   76.97501   58.67291    3.99029   95.62741
   7.66533   85.31078   62.38366    4.08722   96.41976
   7.68537   95.11455   63.59971    4.18886   97.22838
    7.7054   105.5605    61.6524     4.2956    98.0572
    7.7255   115.6737    56.1552     4.4080    98.9082
    7.7455   124.3097    46.9410     4.5269    99.7782
    7.7655   129.8182    34.1732     4.6532   100.6678
    7.7856   130.3093    19.1720     4.7876   101.5807
    7.8056   125.0180     4.7185     4.9309   102.5105
    7.8257   115.2305    -6.3561     5.0823   103.4606
    7.8457   103.4629   -12.8276     5.2397   104.4229
    7.8657    91.9087   -15.1929     5.3977   105.4030
    7.8858    81.6844   -14.6747     5.5509   106.3999
    7.9058    73.0753   -12.3267     5.6960   107.4303
    7.9259    66.1075    -8.8355     5.8359   108.4927
    7.9459    60.8056    -4.7322     5.9759   109.5963
    7.9659    57.1228    -0.5779     6.1220   110.7405
    7.9860    54.7940     3.0494     6.2780   111.9287
    8.0060    53.2484     5.7074     6.4463   113.1569
    8.0261    51.6774     7.3182     6.6275   114.4279
    8.0461    49.3866     8.3242     6.8222   115.7374
    8.0661    46.2323     9.4851     7.0299   117.0940
    8.0862    42.6292    11.3689     7.2515   118.4902
    8.1062    39.1152    14.1099     7.4869   119.9329
    8.1263    36.0311    17.5300     7.7368   121.4222
    8.1463    33.5020    21.4016     8.0016   122.9673
    8.1663    31.5522    25.5570     8.2828   124.5607
    8.1864    30.1774    29.8923     8.5811   126.2099
    8.2064    29.3705    34.3202     8.8975   127.9211
    8.2265    29.1262    38.7872     9.2337   129.6953
    8.2465    29.4559    43.2458     9.5911   131.5357
    8.2665    30.3945    47.6561     9.9716   133.4465
    8.2866    32.0088    51.9484    10.3770   135.4326
    8.3066    34.3941    56.0130    10.8096   137.4996
    8.3267    37.6651    59.6533    11.2720   139.6516
    8.3467    41.9128    62.5401    11.7668   141.8941
    8.3667    47.0827    64.1789    12.2977   144.2324
    8.3868    52.7555    63.9684    12.8676   146.6757
    8.4068    57.9536    61.4621    13.4807   149.2319
    8.4269    61.3046    56.8598    14.1421   151.9050
    8.4469    61.7950    51.2984    14.8572   154.7052
    8.4669    59.4882    46.4273    15.6315   157.6454
    8.4870    55.3979    43.3982    16.4725   160.7337
    8.5070    50.6857    42.4865    17.3887   163.9814
    8.5271    46.1815    43.3991    18.3899   167.4013
    8.5471    42.3615    45.6953    19.4871   171.0095
    8.5671    39.4563    48.9136    20.6939   174.8222
    8.5872    37.5049    52.6596    22.0266   178.8567
    8.6072    36.4224    56.6485    23.5053   183.1302
    8.6273    36.0823    60.7281    25.1538   187.6647
    8.6473    36.4097    64.8493    27.0016   192.4821
    8.6673    37.4314    68.9976    29.0860   197.6053
    8.6874    39.2566    73.1004    31.4524   203.0584
    8.7074    42.0215    76.9920    34.1599   208.8592
    8.7275    45.8407    80.3825    37.2819   215.0215
    8.7475    50.7219    82.8309    40.9064   221.5479
    8.7675    56.4031    83.7964    45.1330   228.4193
    8.7876    62.2011    82.7976    50.0506   235.5897
    8.8076    67.0623    79.7312    55.6993   242.9790
    8.8277    69.9747    75.1696    62.0438   250.4730
    8.8477    70.5209    70.2815    68.9841   257.9605
    8.8677    69.1176    66.2575    76.4074   265.4036
    8.8878    66.7015    63.7040    84.1898   272.9135
    8.9078    64.1644    62.5215    92.2251   280.8485
    8.9279    61.9834    62.2037   100.5491   289.7452
    8.9479    60.1448    62.1984   109.5565   300.0616
    8.9679    58.2764    62.2348   119.9660   312.0841
    8.9880    56.0045    62.4711   132.6229   326.0317
    9.0080    53.3334    63.3369   148.4723   342.0545
    9.0281    50.6753    65.1046   168.6206   360.0939
    9.0481    48.4792    67.6668   194.4021   379.7291
    9.0681    46.9227    70.6690   227.4865   400.0845
    9.0882    45.8903    73.8239   269.9642   419.6451
    9.1082    45.1938    77.0483   324.2777   435.7875
    9.1283    44.7727    80.4066   392.8467   443.9482
    9.1483    44.6874    83.9159   476.8031   436.7197
    9.1683    44.9534    87.5078   573.4385   403.2672
    9.1884    45.4822    91.1399   671.8380   331.6857
    9.2084    46.1929    94.8809   750.2369   216.5395
    9.2285    47.1213    98.8626   782.3651    69.7232
    9.2485    48.4209   103.1908   755.0806   -78.3181
    9.2685    50.3331   107.8816   679.9537  -196.3393
    9.2886    53.1328   112.8260   582.9257  -270.9264
    9.3086    57.0727   117.7563   486.5570  -306.6270
    9.3287    62.3222   122.2748   402.5315  -315.2600
    9.3487    68.8850   125.8079   334.0780  -307.8590
    9.3687    76.3619   127.6518   280.2255  -292.1676
    9.3888    83.7574   127.2123   238.7419  -273.0900
    9.4088    89.6800   124.5638   207.1703  -253.5396
    9.4289    93.0689   120.8426   183.2838  -235.3499
    9.4489    93.8605   117.8080   164.9283  -219.6273
    9.4689    93.0103   116.8572   149.9395  -206.8054
    9.4890    91.9427   118.5304   136.3837  -196.4703
    9.5090    92.0278   122.5846   123.1259  -187.4722
    9.5291    94.2835   128.2691   110.0666  -178.5651
    9.5491    99.2827   134.5698    97.7437  -169.1284
    9.5691   107.1257   140.3749    86.6765  -159.1276
    9.5892   117.4601   144.5869    77.1169  -148.8741
    9.6092   129.6375   146.3164    69.0427  -138.6790
    9.6293   143.0100   145.0223    62.3003  -128.7892
    9.6493   156.9263   140.2013    56.6893  -119.3259
    9.6693   170.2851   131.0726    52.0263  -110.3497
    9.6894   181.0843   117.2950    48.1578  -101.8693
    9.7094   186.8780   100.0806    44.9599   -93.8548
    9.7295   186.0857    82.2685    42.3416   -86.2894
    9.7495   179.1185    67.3421    40.2295   -79.1493
    9.7695   168.4986    57.9247    38.5603   -72.4312
    9.7896   157.7072    54.5042    37.2591   -66.1063
    9.8096   149.4571    55.5512    36.2418   -60.1483
    9.8297   144.8706    58.6489    35.4289   -54.4962
    9.8497   143.5656    61.5580    34.7829   -49.0250
    9.8697   144.1972    62.8377    34.3484   -43.6378
    9.8898   145.1622    62.1746    34.2250   -38.2544
    9.9098   145.3636    60.2780    34.5314   -32.8591
    9.9299   144.6057    58.1702    35.3883   -27.5015
    9.9499   143.2132    56.3584    36.9162   -22.2466
    9.9699   141.2740    54.8226    39.2506   -17.2056
    9.9900   138.5231    53.7247    42.5439   -12.5974
   10.0100   134.9769    53.7844    46.9161    -8.7519
   10.0301   131.4023    55.7174    52.3524    -6.1554
   10.0501   128.8925    59.5160    58.5303    -5.4199
   10.0701   128.1481    64.4920    64.6540    -7.0411
   10.0902   129.2902    69.8808    69.5505   -11.0503
   10.1102   132.2601    75.2780    72.1322   -16.8054
   10.1303   137.2951    80.4789    71.9008   -23.0562
   10.1503   144.8883    84.9651    69.2179   -28.4932
   10.1703   155.3376    87.5246    65.0608   -32.3426
   10.1904   168.1356    86.2454    60.4226   -34.6186
   10.2104   181.3410    79.0394    55.7949   -35.7791
   10.2305   191.4245    65.1857    51.1346   -36.1816
   10.2505   194.5310    47.1564    46.3034   -35.8690
   10.2705   189.3574    30.1047    41.4227   -34.6601
   10.2906   178.4898    18.4568    36.8276   -32.5059
   10.3106   166.1642    13.3081    32.8027   -29.5884
   10.3307   155.4260    13.0394    29.4604   -26.2048
   10.3507   147.2533    15.3653    26.7696   -22.5738
   10.3707   141.2762    18.6594    24.6429   -18.8477
   10.3908   136.7803    22.2412    22.9873   -15.1325
   10.4108   133.3287    26.0557    21.7168   -11.4537
   10.4309   130.8504    30.1126    20.7680    -7.8420
   10.4509   129.2879    34.2059    20.0913    -4.2786
   10.4709   128.3124    38.1056    19.6579    -0.7793
   10.4910   127.4673    41.8993    19.4456     2.6991
   10.5110   126.5464    46.0877    19.4502     6.1556
   10.5311   125.8112    51.2223    19.6772     9.6040
   10.5511   125.7890    57.6643    20.1449    13.0509
   10.5711   127.2239    65.5113    20.8825    16.5196
   10.5912   130.9881    74.5570    21.9390    19.9912
   10.6112   137.9094    84.2047    23.3782    23.4517
   10.6313   148.6276    93.5162    25.2834    26.8386
   10.6513   163.5635   101.1703    27.7449    30.0513
   10.6713   182.6956   105.2031    30.8380    32.8949
   10.6914   205.1395   102.9345    34.5569    35.1078
   10.7114   228.4874    91.8327    38.7295    36.3847
   10.7315   248.4984    71.1841    42.9775    36.4779
   10.7515   260.4160    43.2601    46.7972    35.3383
   10.7715   261.3227    12.7853    49.6921    33.1287
   10.7916   251.5212   -14.9035    51.1773    30.2076
   10.8116   234.0551   -35.8434    50.8762    27.2625
   10.8317   212.9979   -48.6577    48.9193    25.2241
   10.8517   191.5973   -54.0406    46.0580    24.8144
   10.8717   171.8552   -53.4033    43.2286    26.1543
   10.8918   155.0013   -48.1827    41.1028    28.9095
   10.9118   141.7305   -39.8654    40.0106    32.6076
   10.9319   132.1527   -29.9657    40.0637    36.8474
   10.9519   125.7588   -19.7484    41.2913    41.2910
   10.9719   121.6107    -9.9435    43.6835    45.6509
   10.9920   118.7784    -0.5781    47.1683    49.6735
   11.0120   116.8634     8.8393    51.5856    53.1292
   11.0321   116.1021    18.7707    56.7218    55.9429
   11.0521   116.9741    29.2526    62.5318    58.1774
   11.0721   119.8515    39.9315    69.3094    59.8303
   11.0922   124.8642    50.2579    77.4942    60.4714
   11.1122   131.7655    59.6121    87.1177    59.1414
   11.1323   139.8690    67.5228    97.2837    54.6367
   11.1523   148.3467    74.1080   106.0821    46.2912
   11.1723   156.9103    80.2108   111.3718    34.9506
   11.1924   166.1449    86.7374   112.2229    23.0287
   11.2124   177.0369    93.7871   109.7088    13.0107
   11.2325   190.2048   100.6510   106.0898     5.7713
   11.2525   205.8251   106.5945   103.1684     0.3217
   11.2725   224.1819   111.2804   101.1927    -5.1635
   11.2926   245.9287   113.9898    98.8403   -11.9756
   11.3126   271.5298   112.6902    94.2462   -19.7950
   11.3327   300.1370   104.6162    86.6286   -26.8702
   11.3527   329.0287    87.9194    76.8861   -31.3858
   11.3727   354.3530    62.5394    66.7044   -32.7299
   11.3928   372.3112    30.0409    57.4086   -31.4383
   11.4128   379.8148    -6.0688    49.5803   -28.4106
   11.4329   376.0709   -39.9876    43.2813   -24.4295
   11.4529   364.6854   -65.9694    38.3371   -20.0108
