#                                                           
#  /$$     /$$ /$$$$$$  /$$      /$$ /$$$$$$$   /$$$$$$     
# |  $$   /$$//$$__  $$| $$$    /$$$| $$__  $$ /$$__  $$    
#  \  $$ /$$/| $$  \ $$| $$$$  /$$$$| $$  \ $$| $$  \ $$    
#   \  $$$$/ | $$$$$$$$| $$ $$/$$ $$| $$$$$$$ | $$  | $$    
#    \  $$/  | $$__  $$| $$  $$$| $$| $$__  $$| $$  | $$    
#     | $$   | $$  | $$| $$\  $ | $$| $$  \ $$| $$  | $$    
#     | $$   | $$  | $$| $$ \/  | $$| $$$$$$$/|  $$$$$$/    
#     |__/   |__/  |__/|__/     |__/|_______/  \______/     
#                                                           
#       Version 4.1.1 Revision 13960 Hash bb9ad93           
#                       MPI Build                           
#               http://www.yambo-code.org                   
#
# Polarizability ( -<<X>> ) [volume @ Q(1) [q->0 direction]0.5774E-5 0.5774E-5 0.5774E-5
#
#
# - Energies      are GoWo Plasmon Pole appox.
# - Wavefunctions are Teter 93(XC)
#
# - The Green`s function is Retarded -
# - Using the Length Gauge -
# - [r,Vnl] *is* included -
#
#   BSK|Identifier              :7718
#      |Dimension               :110
#      |Bands                   :14 - 34
#      |Exchange           [res]: yes
#      |Correlation        [res]: yes
#      |Kernel`s coupling       : yes
#      |Exchange           [cpl]: yes
#      |Correlation        [cpl]: no
#      |W interaction is bare   : no
#      |ALDA kernel in R-space  : no
#      |RL vectors    [exchange]:367
#      |RL vectors [correlation]:87
#      |E/h energy range    [ev]:-1.000000 - -1.000000
#      |Coupling range     [o/o]: 100.0000 -  100.0000
#    W |Interaction is diagonal : no
#      |Matrix size             :367
#      |Bands                   :1 - 50
#      |e/h energy range    [ev]:-1.000000 - -1.000000
#      |Poles              [o/o]: 100.0000
#      |RL vectors in the sum   :17279
#      |[r,Vnl] included        : yes
#      |Field direction         :0.1000E-4  0.000000  0.000000
#      |Coulomb Cutoff          :none
#      |xc-Kernel               :none
#   RIM|RL components      [col]:0
#      |Random points      [col]:0
#
#  E/ev[1]    ALPHA-Im[2]ALPHA-Re[3]ALPHAo-Im[4ALPHAo-Re[5]
   5.00000    3.92214   72.83543    0.63240   55.31034
   5.02004    3.83602   73.16216    0.63843   55.43755
   5.04008    3.74227   73.56318    0.64454   55.56598
   5.06012    3.66018   74.02145    0.65072   55.69559
   5.08016    3.59397   74.52393    0.65698   55.82653
   5.10020    3.54496   75.06518    0.66331   55.95867
   5.12024    3.51630   75.64141    0.66973   56.09210
   5.14028    3.51100   76.24796    0.67623   56.22687
   5.16032    3.52996   76.87968    0.68281   56.36288
   5.18036    3.57249   77.53298    0.68947   56.50021
   5.20040    3.63751   78.20581    0.69623   56.63895
   5.22044    3.72440   78.89772    0.70306   56.77900
   5.24048    3.83345   79.60889    0.70999   56.92043
   5.26052    3.96614   80.34010    0.71701   57.06327
   5.28056    4.12526   81.09191    0.72413   57.20752
   5.30060    4.31520   81.86449    0.73134   57.35317
   5.32064    4.54222   82.65697    0.73864   57.50034
   5.34068    4.81478   83.46579    0.74605   57.64893
   5.36072    5.14346   84.28351    0.75355   57.79904
   5.38076    5.53999   85.09512    0.76116   57.95063
   5.40080    6.01356   85.87447    0.76887   58.10375
   5.42084    6.56166   86.58027    0.77669   58.25845
   5.44088    7.15336   87.16017    0.78462   58.41470
   5.46092    7.71159   87.57467    0.79265   58.57253
   5.48096    8.12208   87.84402    0.80081   58.73203
   5.50100    8.29748   88.07888    0.80907   58.89314
   5.52104    8.25219   88.42903    0.81746   59.05590
   5.54108    8.09301   88.98719    0.82597   59.22038
   5.56112    7.93845   89.75331    0.83460   59.38656
   5.58116    7.86307   90.67181    0.84335   59.55447
   5.60120    7.89250   91.67455    0.85224   59.72419
   5.62124    8.01554   92.70147    0.86125   59.89563
   5.64128    8.19198   93.71155    0.87040   60.06890
   5.66132    8.36308   94.69888    0.87969   60.24403
   5.68136    8.48041   95.70290    0.88911   60.42103
   5.70140    8.53915   96.78653    0.89868   60.59992
   5.72144    8.57689   97.99384    0.90840   60.78074
   5.74148    8.63994   99.33199    0.91826   60.96353
    5.7615     8.7587   100.7865     0.9283    61.1483
    5.7816     8.9460   102.3398     0.9384    61.3351
    5.8016     9.2045   103.9801     0.9488    61.5239
    5.8216     9.5342   105.7025     0.9593    61.7148
    5.8417     9.9354   107.5070     0.9699    61.9078
    5.8617    10.4106   109.3970     0.9808    62.1030
    5.8818    10.9650   111.3777     0.9918    62.3003
    5.9018    11.6075   113.4553     1.0030    62.4999
    5.9218    12.3503   115.6355     1.0143    62.7018
    5.9419    13.2098   117.9226     1.0259    62.9058
    5.9619    14.2065   120.3164     1.0376    63.1123
    5.9820    15.3637   122.8101     1.0496    63.3211
    6.0020    16.7031   125.3860     1.0617    63.5323
    6.0220    18.2359   128.0148     1.0741    63.7460
    6.0421    19.9520   130.6638     1.0866    63.9621
    6.0621    21.8168   133.3162     1.0994    64.1808
    6.0822    23.7893   135.9865     1.1124    64.4020
    6.1022    25.8379   138.7121     1.1256    64.6259
    6.1222    27.9316   141.5531     1.1391    64.8524
    6.1423    30.0564   144.6272     1.1528    65.0817
    6.1623    32.2901   148.1014     1.1667    65.3137
    6.1824    34.8343   152.0974     1.1809    65.5485
    6.2024    37.9431   156.6172     1.1953    65.7861
    6.2224    41.8434   161.5605     1.2100    66.0267
    6.2425    46.7109   166.7708     1.2250    66.2702
    6.2625    52.6761   172.0580     1.2403    66.5168
    6.2826    59.8145   177.2007     1.2558    66.7664
    6.3026    68.1136   181.9861     1.2716    67.0191
    6.3226    77.5076   186.3154     1.2877    67.2751
    6.3427    88.0729   190.2336     1.3042    67.5343
    6.3627   100.1919   193.6778     1.3209    67.7968
    6.3828   114.3537   196.1522     1.3380    68.0626
    6.4028   130.7549   196.7498     1.3554    68.3319
    6.4228   149.1359   194.4411     1.3732    68.6048
    6.4429   168.8280   188.2555     1.3913    68.8811
    6.4629   188.7725   177.4052     1.4097    69.1612
    6.4830   207.6401   161.3738     1.4286    69.4450
    6.5030   223.7087   139.7514     1.4478    69.7325
    6.5230   234.2050   112.7887     1.4674    70.0240
    6.5431   235.9940    83.1092     1.4874    70.3193
    6.5631   228.4166    55.6370     1.5079    70.6187
    6.5832   214.4373    34.3500     1.5287    70.9223
    6.6032   198.0714    20.0562     1.5500    71.2300
    6.6232   181.9401    11.6578     1.5718    71.5421
    6.6433   167.4518     7.9466     1.5940    71.8585
    6.6633   155.7127     7.7459     1.6168    72.1793
    6.6834   147.4574     9.5162     1.6400    72.5049
    6.7034   142.7035    11.5859     1.6637    72.8350
    6.7234   140.8644    12.5370     1.6880    73.1699
    6.7435   140.9324    11.2275     1.7128    73.5097
    6.7635   141.3051     6.9107     1.7382    73.8545
  6.784      139.9     -.7206E-1   1.764      74.20   
    6.8036   135.1607    -7.8240     1.7907    74.5597
    6.8236   127.5625   -13.9201     1.8179    74.9202
    6.8437   119.0192   -17.2086     1.8457    75.2861
    6.8637   111.3219   -18.3086     1.8742    75.6578
    6.8838   105.0193   -18.6454     1.9033    76.0351
   6.90381   99.47256  -19.29178    1.93323   76.41830
   6.92385   93.59083  -20.30770    1.96385   76.80753
   6.94389   86.78611  -20.83015    1.99522   77.20292
   6.96393   79.44980  -19.90001    2.02738   77.60464
   6.98397   72.52795  -17.21401    2.06035   78.01286
   7.00401   66.84055  -13.14229    2.09417   78.42767
   7.02405   62.79819   -8.35463    2.12886   78.84934
   7.04409   60.44476   -3.54063    2.16445   79.27796
   7.06413   59.56248    0.71591    2.20098   79.71378
   7.08417   59.76236    3.98653    2.23848   80.15697
   7.10421   60.55029    6.01335    2.27700   80.60769
   7.12425   61.35362    6.72363    2.31656   81.06614
   7.14429   61.56633    6.31166    2.35721   81.53259
   7.16433   60.73903    5.31217    2.39899   82.00723
   7.18437   58.86509    4.43530    2.44195   82.49030
   7.20441   56.39244    4.12164    2.48613   82.98197
   7.22445   53.77325    4.30273    2.53158   83.48257
   7.24449   51.05770    4.71771    2.57836   83.99229
   7.26453   48.02492    5.38713    2.62652   84.51143
   7.28457   44.64124    6.65328    2.67612   85.04030
   7.30461   41.23553    8.79698    2.72722   85.57910
   7.32465   38.24767   11.78137    2.77988   86.12822
   7.34469   35.96834   15.33882    2.83419   86.68793
   7.36473   34.49154   19.14736    2.89020   87.25858
   7.38477   33.76703   22.92037    2.94801   87.84045
   7.40481   33.63589   26.43639    3.00768   88.43397
   7.42485   33.84584   29.58398    3.06932   89.03947
   7.44489   34.11307   32.43449    3.13303   89.65741
   7.46493   34.27388   35.25700    3.19890   90.28809
   7.48497   34.41765   38.37354    3.26706   90.93202
   7.50501   34.83343   41.95812    3.33762   91.58961
   7.52505   35.84058   45.98619    3.41073   92.26137
   7.54509   37.69514   50.31321    3.48653   92.94774
   7.56513   40.60223   54.74477    3.56520   93.64928
   7.58517   44.75703   59.03816    3.64691   94.36652
   7.60521   50.36393   62.85294    3.73189   95.10004
   7.62525   57.59480   65.66402    3.82039   95.85043
   7.64529   66.44650   66.68581    3.91269   96.61833
   7.66533   76.47681   64.91649    4.00914   97.40434
   7.68537   86.54890   59.44339    4.11017   98.20912
   7.70541   94.84610   49.99406    4.21626   99.03326
   7.72545   99.35197   37.44009    4.32804   99.87740
    7.7455    98.7075    23.9039     4.4463   100.7419
    7.7655    93.1194    12.0934     4.5718   101.6270
    7.7856    84.4003     3.9267     4.7055   102.5323
    7.8056    74.8049    -0.2636     4.8478   103.4568
    7.8257    65.9353    -1.2779     4.9985   104.3988
    7.8457    58.5060    -0.2432     5.1549   105.3563
    7.8657    52.5765     1.8842     5.3121   106.3292
    7.8858    47.8832     4.5252     5.4643   107.3214
    7.9058    44.1659     7.4544     5.6087   108.3409
    7.9259    41.3453    10.5796     5.7477   109.3961
    7.9459    39.4557    13.7226     5.8869   110.4921
    7.9659    38.4699    16.5660     6.0320   111.6304
    7.9860    38.1614    18.7416     6.1871   112.8106
    8.0060    38.0471    20.0055     6.3543   114.0316
    8.0261    37.5009    20.4740     6.5346   115.2931
    8.0461    36.1061    20.6957     6.7280   116.5952
    8.0661    33.9550    21.3308     6.9347   117.9390
    8.0862    31.5029    22.7230     7.1549   119.3262
    8.1062    29.1812    24.8358     7.3890   120.7587
    8.1263    27.2125    27.4762     7.6374   122.2388
    8.1463    25.6653    30.4764     7.9009   123.7691
    8.1663    24.5573    33.7279     8.1803   125.3522
    8.1864    23.8990    37.1551     8.4768   126.9912
    8.2064    23.6989    40.6989     8.7915   128.6892
    8.2265    23.9699    44.3134     9.1258   130.4498
    8.2465    24.7388    47.9602     9.4813   132.2767
    8.2665    26.0554    51.5960     9.8596   134.1738
    8.2866    27.9962    55.1540    10.2629   136.1458
    8.3066    30.6634    58.5182    10.6932   138.1972
    8.3267    34.1709    61.4864    11.1531   140.3333
    8.3467    38.5983    63.7156    11.6454   142.5594
    8.3667    43.8661    64.6815    12.1734   144.8821
    8.3868    49.5211    63.7536    12.7404   147.3078
    8.4068    54.5618    60.5264    13.3508   149.8438
    8.4269    57.6450    55.3627    14.0091   152.4981
    8.4469    57.8691    49.5916    14.7207   155.2798
    8.4669    55.4653    44.8229    15.4917   158.1982
    8.4870    51.5160    41.9889    16.3293   161.2641
    8.5070    47.1220    41.1715    17.2417   164.4893
    8.5271    43.0050    42.0426    18.2388   167.8871
    8.5471    39.5740    44.1852    19.3318   171.4714
    8.5671    37.0263    47.1830    20.5344   175.2584
    8.5872    35.3922    50.6716    21.8629   179.2659
    8.6072    34.5907    54.3910    23.3369   183.5130
    8.6273    34.5113    58.2098    24.9802   188.0207
    8.6473    35.1018    62.0927    26.8220   192.8118
    8.6673    36.4056    66.0133    28.8989   197.9104
    8.6874    38.5282    69.8813    31.2559   203.3400
    8.7074    41.5907    73.5159    33.9494   209.1219
    8.7275    45.6935    76.6187    37.0490   215.2713
    8.7475    50.8330    78.7309    40.6390   221.7902
    8.7675    56.7300    79.2596    44.8139   228.6559
    8.7876    62.6545    77.6992    49.6660   235.8097
    8.8076    67.4889    74.0420    55.2585   243.1536
    8.8277    70.2025    69.0656    61.5904   250.5714
    8.8477    70.4762    64.0914    68.5826   257.9775
    8.8677    68.8950    60.2792    76.0977   265.3641
    8.8878    66.4968    58.0724    83.9606   272.8429
    8.9078    64.1591    57.2213    92.0200   280.7317
    8.9279    62.2900    57.1397   100.3523   289.5677
    8.9479    60.8040    57.2733   109.4063   299.8837
    8.9679    59.2924    57.4011   119.8714   312.0056
    8.9880    57.3866    57.7689   132.5407   326.0984
    9.0080    55.1353    58.8541   148.3692   342.2157
    9.0281    52.9876    60.8973   168.5462   360.2146
    9.0481    51.3933    63.7146   194.4998   379.6526
    9.0681    50.4958    66.9225   227.9414   399.6733
    9.0882    50.1556    70.2571   270.9471   418.7458
    9.1082    50.1979    73.7052   325.9268   434.1473
    9.1283    50.6212    77.3635   395.2040   441.1456
    9.1483    51.5494    81.2159   479.7152   432.0393
    9.1683    53.0315    85.1146   576.1815   395.8710
    9.1884    54.9679    88.9484   672.8387   320.9889
    9.2084    57.2287    92.7631   747.1995   203.1346
    9.2285    59.7996    96.7259   773.5804    56.1192
    9.2485    62.8491   101.0094   741.0858   -88.7936
    9.2685    66.7038   105.6560   663.3165  -201.7224
    9.2886    71.7318   110.5044   566.4349  -271.3722
    9.3086    78.2510   115.2180   471.8180  -303.4889
    9.3287    86.5078   119.2848   390.0416  -309.9672
    9.3487    96.5742   121.9617   323.7125  -301.4634
    9.3687   108.1392   122.3373   271.6700  -285.3502
    9.3888   120.3526   119.5775   231.5927  -266.1965
    9.4088   131.8583   113.2950   201.1031  -246.7572
    9.4289   141.1334   103.8744   178.0357  -228.7487
    9.4489   147.0150    92.4374   160.3291  -213.2499
    9.4689   148.9709    80.4510   145.8930  -200.6863
    9.4890   147.0108    69.4606   132.8194  -190.6008
    9.5090   141.7446    61.0988   119.9738  -181.7905
    9.5291   134.7118    56.7333   107.2790  -173.0316
    9.5491   128.1282    56.6723    95.2744  -163.7126
    9.5691   123.9433    59.9603    84.4933  -153.8444
    9.5892   123.2367    64.9744    75.1814  -143.7321
    9.6092   126.2934    70.0150    67.3227  -133.7001
    9.6293   132.8791    73.4472    60.7621  -123.9763
    9.6493   142.1929    73.5598    55.3047  -114.6830
    9.6693   152.3608    68.7699    50.7692  -105.8671
    9.6894   160.2163    58.7358    47.0053   -97.5324
    9.7094   162.5999    45.6349    43.8957   -89.6612
    9.7295   158.7230    33.5262    41.3504   -82.2287
    9.7495   150.7746    25.6680    39.2987   -75.2141
    9.7695   141.9659    22.8733    37.6773   -68.6043
    9.7896   134.7025    24.1872    36.4168   -62.3889
    9.8096   130.2767    28.0532    35.4343   -56.5397
    9.8297   129.1398    32.8323    34.6499   -50.9875
    9.8497   131.0527    37.0027    34.0287   -45.6193
    9.8697   135.1601    39.3786    33.6113   -40.3196
    9.8898   140.1652    39.4136    33.4982   -35.0197
    9.9098   144.7989    37.4451    33.8078   -29.7107
    9.9299   148.5091    34.4569    34.6564   -24.4280
    9.9499   151.6931    31.2252    36.1631   -19.2393
    9.9699   155.0213    27.6776    38.4623   -14.2588
    9.9900   158.6534    23.1960    41.6993    -9.6836
   10.0100   162.1839    17.2449    45.9923    -5.8438
   10.0301   164.9292     9.6035    51.3316    -3.2406
   10.0501   166.1264     0.4139    57.4075    -2.5024
   10.0701   165.1242    -9.8988    63.4509    -4.1560
   10.0902   161.2949   -20.7296    68.3102    -8.2369
   10.1102   154.0819   -30.9506    70.8822   -14.0356
   10.1303   143.7327   -38.9400    70.6537   -20.2638
   10.1503   131.5203   -43.5428    67.9794   -25.6035
   10.1703   118.9123   -44.5854    63.8453   -29.3198
   10.1904   106.9783   -42.4416    59.2472   -31.4631
  10.21042   96.46325  -37.63779   54.68132  -32.53432
  10.23046   87.89495  -30.81192   50.10790  -32.92491
  10.25050   81.54187  -22.66613   45.36638  -32.61798
  10.27054   77.43362  -13.84208   40.56908  -31.40348
  10.29058   75.46212   -4.86355   36.05217  -29.24474
  10.31062   75.45214    3.83656   32.10014  -26.34280
  10.33066   77.15967   11.88320   28.81973  -22.97844
  10.35070   80.23975   18.99005   26.18212  -19.38458
  10.37074   84.28348   25.05625   24.10065  -15.71274
  10.39078   88.98760   30.19382   22.48043  -12.04732
  10.41082   94.28867   34.54585   21.23895   -8.42784
   10.4309   100.2374    38.0839    20.3120    -4.8672
   10.4509   106.8187    40.6409    19.6529    -1.3641
   10.4709   113.9201    41.9632    19.2305     2.0910
   10.4910   121.1687    41.7122    19.0268     5.5115
   10.5110   127.7472    39.8500    19.0358     8.9123
   10.5311   132.8681    37.1606    19.2629    12.3075
   10.5511   136.6429    34.9428    19.7254    15.7091
   10.5711   140.1790    34.0269    20.4543    19.1239
   10.5912   144.8673    34.2808    21.4959    22.5489
   10.6112   151.8290    34.7939    22.9140    25.9631
   10.6313   161.7251    34.0412    24.7892    29.3140
   10.6513   174.4121    29.9028    27.2113    32.4975
   10.6713   188.2900    20.0375    30.2523    35.3321
   10.6914   199.8543     3.1090    33.9083    37.5460
   10.7114   204.6738   -19.4083    38.0147    38.8162
   10.7315   200.2174   -42.9518    42.1998    38.8927
   10.7515   187.7421   -62.6177    45.9669    37.7339
   10.7715   170.7044   -75.9918    48.8271    35.5069
   10.7916   152.1972   -82.9938    50.3033    32.5645
   10.8116   134.2951   -84.4345    50.0184    29.5952
   10.8317   118.4071   -81.4343    48.0841    27.5669
   10.8517   105.3572   -75.3186    45.2460    27.1966
  10.87174   95.37769  -67.38163   42.44057   28.57452
  10.89178   88.27266  -58.67827   40.33683   31.34031
  10.91182   83.60625  -49.96926   39.25683   35.02504
  10.93186   80.81717  -41.73152   39.30952   39.22786
  10.95190   79.29563  -34.15131   40.51787   43.63214
  10.97194   78.49326  -27.09903   42.86977   47.95947
  10.99198   78.11239  -20.16988   46.30032   51.93824
  11.01202   78.25827  -12.91678   50.65189   55.34030
  11.03206   79.32089   -5.14395   55.71421   58.08858
  11.05210   81.69716    3.04986   61.42605   60.28431
  11.07214   85.67598   11.42577   68.06157   61.95255
  11.09218   91.49545   19.67823   76.05999   62.64709
  11.11222   99.35153   27.37589   85.50423   61.33148
   11.1323   109.2762    33.9496    95.5731    56.7481
   11.1523   121.0573    38.8477   104.3663    48.2790
   11.1723   134.3844    41.6768   109.6451    36.9033
   11.1924   149.0079    42.0488   110.3985    25.1265
   11.2124   164.5200    39.4036   107.7341    15.3999
   11.2325   180.1253    33.2958   103.9812     8.4926
   11.2525   194.9428    23.6372   100.9816     3.3194
   11.2725   208.1079    10.3534    99.0073    -2.0011
   11.2926   218.1733    -6.4508    96.7362    -8.7444
   11.3126   223.4289   -25.3300    92.2774   -16.5236
   11.3327   223.7345   -43.6270    84.7907   -23.4755
   11.3527   220.9532   -59.7134    75.1819   -27.8007
   11.3727   216.7847   -74.0935    65.1602   -28.9803
   11.3928   211.1584   -87.7158    56.0357   -27.5909
   11.4128   203.3125  -100.1104    48.3713   -24.5369
   11.4329   193.7686  -109.9049    42.2147   -20.5771
   11.4529   184.3590  -116.8256    37.3895   -16.2149
