#                                                           
# ooooo   oooo ..     ooo        ooo ooooooooo.    .oooo.   
#  `88.   .8" .88.    `88.       .88 `88"   `Y8b  dP"  `Yb  
#   `88. .8" .8"88.    888b     d"88  88     888 88      88 
#    `88.8" .8" `88.   8 Y88. .P  88  88oooo888" 88      88 
#     `88" .88ooo888.  8  `888"   88  88    `88b 88      88 
#      88 .8"     `88. 8    Y     88  88    .88P `8b    d8" 
#     o88o88o      888o8          88 o88bood8P"   `Ybod8P"  
#                                                           
#                                                           
#         Version 4.3.0 Revision 15632 Hash 1defe02         
#                   MPI+SLK+OpenMP Build                    
#                 http://www.yambo-code.org                 
#
# Absorption @ Q(1) [q->0 direction] : 1.0000000  0.0000000  0.0000000
#
#
# - Energies      are Perdew, Burke & Ernzerhof(X)+Perdew, Burke & Ernzerhof(C)
# - Wavefunctions are Perdew, Burke & Ernzerhof(X)+Perdew, Burke & Ernzerhof(C)
#
# - The Green`s function is Retarded -
# - Using the Length Gauge -
# - [r,Vnl] *is* included -
#
#    E/ev[1]       EPS-Im[2]     EPS-Re[3]     EPSo-Im[4]    EPSo-Re[5]
#
   0.20000        39.605        265.93        40.450        268.61   
   0.20160        40.120        266.41        40.977        269.10   
   0.20321        40.643        266.90        41.512        269.59   
   0.20481        41.175        267.39        42.052        270.10   
   0.20641        41.708        267.89        42.599        270.60   
   0.20802        42.249        268.39        43.153        271.12   
   0.20962        42.800        268.90        43.714        271.63   
   0.21122        43.357        269.42        44.282        272.15   
   0.21283        43.921        269.94        44.857        272.68   
   0.21443        44.484        270.44        45.440        273.21   
   0.21603        45.065        270.97        46.029        273.75   
   0.21764        45.651        271.50        46.627        274.29   
   0.21924        46.244        272.03        47.232        274.84   
   0.22084        46.838        272.57        47.845        275.39   
   0.22244        47.447        273.11        48.466        275.95   
   0.22405        48.056        273.65        49.095        276.51   
   0.22565        48.684        274.21        49.733        277.08   
   0.22725        49.312        274.76        50.379        277.65   
   0.22886        49.957        275.34        51.033        278.23   
   0.23046        50.606        275.90        51.697        278.81   
   0.23206        51.268        276.49        52.369        279.39   
   0.23367        51.938        277.07        53.051        279.99   
   0.23527        52.604        277.63        53.742        280.58   
   0.23687        53.296        278.24        54.442        281.18   
   0.23848        53.985        278.82        55.153        281.79   
   0.24008        54.691        279.42        55.873        282.40   
   0.24168        55.407        280.03        56.603        283.02   
   0.24329        56.138        280.65        57.344        283.64   
   0.24489        56.866        281.25        58.095        284.26   
   0.24649        57.613        281.85        58.857        284.89   
   0.24810        58.365        282.47        59.629        285.52   
   0.24970        59.136        283.11        60.413        286.16   
   0.25130        59.911        283.72        61.208        286.81   
   0.25291        60.701        284.36        62.014        287.45   
   0.25451        61.498        284.99        62.833        288.11   
   0.25611        62.311        285.62        63.663        288.76   
   0.25772        63.131        286.25        64.505        289.42   
   0.25932        63.970        286.92        65.360        290.09   
   0.26092        64.823        287.58        66.227        290.75   
   0.26253        65.674        288.21        67.108        291.43   
   0.26413        66.548        288.87        68.001        292.10   
   0.26573        67.437        289.53        68.908        292.78   
   0.26733        68.346        290.23        69.828        293.47   
   0.26894        69.252        290.88        70.762        294.15   
   0.27054        70.187        291.57        71.710        294.84   
   0.27214        71.124        292.23        72.673        295.54   
   0.27375        72.072        292.89        73.650        296.23   
   0.27535        73.051        293.60        74.642        296.93   
   0.27695        74.036        294.27        75.649        297.63   
   0.27856        75.031        294.94        76.671        298.34   
   0.28016        76.053        295.64        77.709        299.04   
   0.28176        77.075        296.32        78.762        299.75   
   0.28337        78.126        297.01        79.832        300.46   
   0.28497        79.186        297.71        80.918        301.18   
   0.28657        80.255        298.39        82.020        301.89   
   0.28818        81.362        299.09        83.140        302.60   
   0.28978        82.465        299.78        84.276        303.32   
   0.29138        83.595        300.46        85.430        304.04   
   0.29299        84.746        301.19        86.602        304.76   
   0.29459        85.900        301.87        87.791        305.47   
   0.29619        87.087        302.58        88.998        306.19   
   0.29780        88.282        303.24        90.224        306.91   
   0.29940        89.502        303.97        91.469        307.63   
   0.30100        90.729        304.64        92.732        308.34   
   0.30261        91.984        305.34        94.014        309.06   
   0.30421        93.263        306.04        95.315        309.77   
   0.30581        94.541        306.71        96.636        310.48   
   0.30741        95.872        307.41        97.977        311.19   
   0.30902        97.199        308.10        99.337        311.89   
   0.31062        98.535        308.77        100.72        312.60   
   0.31222        99.900        309.42        102.12        313.29   
   0.31383        101.28        310.07        103.54        313.99   
      0.31543     102.70940     310.76010     104.98088     314.67908
      0.31703     104.12905     311.41843     106.44315     315.36423
      0.31864     105.57151     312.06430     107.92625     316.04376
      0.32024     107.03241     312.70062     109.43020     316.71786
      0.32184     108.52358     313.33450     110.95517     317.38516
      0.32345     110.03288     313.96707     112.50127     318.04590
      0.32505     111.56250     314.59653     114.06845     318.69913
      0.32665     113.10470     315.19455     115.65681     319.34442
      0.32826     114.69292     315.83734     117.26631     319.98151
      0.32986     116.27848     316.43469     118.89719     320.60959
      0.33146     117.88120     317.00378     120.54903     321.22815
      0.33307     119.51394     317.58716     122.22206     321.83679
      0.33467     121.13887     318.12665     123.91619     322.43494
      0.33627     122.81959     318.69440     125.63120     323.02194
      0.33788     124.52233     319.25601     127.36710     323.59744
      0.33948     126.23641     319.76352     129.12372     324.16083
      0.34108     127.96580     320.28918     130.90076     324.71161
      0.34269     129.70821     320.78668     132.69818     325.24887
      0.34429     131.47937     321.26965     134.51578     325.77274
      0.34589     133.26097     321.75589     136.35307     326.28220
      0.34749     135.03799     322.17810     138.20999     326.77701
      0.34910     136.87976     322.65158     140.08621     327.25656
      0.35070     138.70102     323.07584     141.98134     327.72061
      0.35230     140.54399     323.45816     143.89497     328.16827
      0.35391     142.44522     323.87827     145.82683     328.59943
      0.35551     144.31287     324.23822     147.77649     329.01364
      0.35711     146.22768     324.59244     149.74338     329.41022
      0.35872     148.13287     324.92514     151.72725     329.78931
      0.36032     150.09105     325.26828     153.72746     330.15021
      0.36192     152.04236     325.57422     155.74344     330.49265
      0.36353     153.98544     325.83090     157.77487     330.81641
      0.36513     155.96011     326.08624     159.82109     331.12100
      0.36673     157.95107     326.34711     161.88162     331.40677
      0.36834     159.93629     326.55261     163.95567     331.67303
      0.36994     161.94690     326.76407     166.04289     331.91998
      0.37154     163.97066     326.97198     168.14259     332.14728
      0.37315     165.99425     327.09976     170.25415     332.35522
      0.37475     168.01738     327.25446     172.37706     332.54367
      0.37635     170.05429     327.36148     174.51070     332.71237
      0.37796     172.14494     327.50446     176.65439     332.86230
      0.37956     174.18939     327.55518     178.80762     332.99255
      0.38116     176.22769     327.59808     180.96980     333.10400
      0.38277     178.33487     327.70041     183.14035     333.19675
      0.38437     180.39015     327.71411     185.31873     333.27130
      0.38597     182.47368     327.72794     187.50465     333.32785
      0.38758     184.56635     327.72522     189.69720     333.36670
      0.38918     186.63831     327.68933     191.89626     333.38861
      0.39078     188.72716     327.65585     194.10144     333.39401
      0.39238     190.81303     327.60867     196.31229     333.38367
      0.39399     192.89398     327.51547     198.52849     333.35794
      0.39559     195.00845     327.44821     200.74979     333.31744
      0.39719     197.10051     327.36630     202.97610     333.26337
      0.39880     199.17877     327.23373     205.20728     333.19577
      0.40040     201.27109     327.10941     207.44328     333.11609
      0.40200     203.35226     326.96594     209.68404     333.02475
      0.40361     205.48132     326.84378     211.92972     332.92288
      0.40521     207.56033     326.70209     214.18056     332.81107
      0.40681     209.64850     326.53986     216.43687     332.69043
      0.40842     211.75948     326.37009     218.69899     332.56183
      0.41002     213.86002     326.22394     220.96722     332.42596
      0.41162     215.95580     326.02090     223.24242     332.28372
      0.41323     218.08777     325.87366     225.52501     332.13599
      0.41483     220.17075     325.67923     227.81581     331.98422
      0.41643     222.29214     325.48978     230.11583     331.82837
      0.41804     224.41846     325.31677     232.42603     331.66974
      0.41964     226.53421     325.15073     234.74673     331.50888
      0.42124     228.70723     324.97089     237.08067     331.34647
      0.42285     230.84279     324.79111     239.42780     331.18295
      0.42445     232.94717     324.59305     241.78984     331.01941
      0.42605     235.14209     324.46454     244.16826     330.85602
      0.42766     237.30246     324.30121     246.56476     330.69299
      0.42926     239.49663     324.14056     248.98076     330.53076
      0.43086     241.69818     323.97125     251.41789     330.36963
      0.43246     243.95721     323.83206     253.87823     330.20972
      0.43407     246.18399     323.68460     256.36365     330.05069
      0.43567     248.43584     323.58185     258.87552     329.89288
      0.43727     250.71796     323.43164     261.41647     329.73560
      0.43888     253.05183     323.35223     263.98822     329.57831
      0.44048     255.36887     323.20880     266.59268     329.42117
      0.44208     257.71381     323.11676     269.23236     329.26285
      0.44369     260.14609     323.00662     271.90891     329.10266
      0.44529     262.59918     322.89856     274.62473     328.93991
      0.44689     265.05292     322.79080     277.38193     328.77310
      0.44850     267.56723     322.70596     280.18271     328.60132
      0.45010     270.13086     322.65869     283.02927     328.42279
      0.45170     272.73386     322.52979     285.92337     328.23596
      0.45331     275.32025     322.45657     288.86743     328.03915
      0.45491     278.05557     322.36475     291.86346     327.83038
      0.45651     280.76981     322.23108     294.91318     327.60760
      0.45812     283.59158     322.16263     298.01898     327.36877
      0.45972     286.43726     322.05725     301.18277     327.11118
      0.46132     289.31540     321.93546     304.40598     326.83234
      0.46293     292.24765     321.81204     307.69064     326.52942
      0.46453     295.28436     321.64890     311.03815     326.19998
      0.46613     298.36728     321.47464     314.45029     325.84027
      0.46774     301.50827     321.30200     317.92847     325.44791
      0.46934     304.72217     321.10629     321.47415     325.01904
      0.47094     307.96451     320.85382     325.08829     324.54996
      0.47255     311.32852     320.58264     328.77213     324.03757
      0.47415     314.73318     320.28784     332.52667     323.47763
      0.47575     318.22766     319.98322     336.35287     322.86664
      0.47735     321.78961     319.59537     340.25076     322.20007
      0.47896     325.38168     319.14731     344.22119     321.47418
      0.48056     329.10532     318.70755     348.26456     320.68417
      0.48216     332.84836     318.20340     352.38080     319.82590
      0.48377     336.72253     317.59930     356.56949     318.89481
      0.48537     340.57947     316.97440     360.83093     317.88596
      0.48697     344.62442     316.29135     365.16415     316.79477
      0.48858     348.68399     315.48642     369.56839     315.61624
      0.49018     352.83292     314.65909     374.04260     314.34518
      0.49178     357.02930     313.77496     378.58582     312.97687
      0.49339     361.35068     312.79755     383.19604     311.50644
      0.49499     365.72403     311.69327     387.87170     309.92776
      0.49659     370.12820     310.51501     392.61066     308.23633
      0.49820     374.66528     309.20166     397.41037     306.42661
      0.49980     379.25507     307.84998     402.26804     304.49338
      0.50140     383.93549     306.35931     407.18100     302.43140
      0.50301     388.58112     304.76917     412.14539     300.23511
      0.50461     393.41290     303.01230     417.15784     297.89935
      0.50621     398.22430     301.22089     422.21408     295.41852
      0.50782     403.14597     299.20654     427.30975     292.78796
      0.50942     408.05252     297.13245     432.44000     290.00259
      0.51102     413.07693     294.87006     437.59961     287.05713
      0.51263     418.09628     292.49020     442.78308     283.94662
      0.51423     423.17017     289.93777     447.98419     280.66672
      0.51583     428.24173     287.24692     453.19702     277.21277
      0.51743     433.42365     284.40421     458.41470     273.58041
      0.51904     438.56186     281.37885     463.63004     269.76584
      0.52064     443.79749     278.17883     468.83542     265.76492
      0.52224     448.97168     274.85361     474.02322     261.57465
      0.52385     454.17255     271.33157     479.18509     257.19174
      0.52545     459.45178     267.50558     484.31256     252.61327
      0.52705     464.60934     263.67978     489.39664     247.83728
      0.52866     469.81009     259.54102     494.42795     242.86191
      0.53026     474.98788     255.25198     499.39685     237.68533
      0.53186     480.04922     250.80588     504.29370     232.30736
      0.53347     485.13666     246.14378     509.10889     226.72675
      0.53507     490.22501     241.20711     513.83081     220.94443
      0.53667     495.18573     236.15994     518.45044     214.96083
      0.53828     500.08475     230.86719     522.95605     208.77769
      0.53988     504.90274     225.40126     527.33777     202.39716
      0.54148     509.64185     219.66597     531.58429     195.82175
      0.54309     514.31720     213.79497     535.68518     189.05522
      0.54469     518.79236     207.73877     539.62897     182.10197
      0.54629     523.20819     201.46675     543.40601     174.96634
      0.54790     527.50006     194.92999     547.00500     167.65431
   0.54950        531.59        188.30        550.42        160.17   
   0.55110        535.59        181.41        553.63        152.53   
   0.55271        539.41        174.37        556.63        144.73   
   0.55431        543.06        167.13        559.42        136.78   
   0.55591        546.53        159.71        561.98        128.70   
   0.55752        549.75        152.24        564.31        120.48   
   0.55912        552.81        144.44        566.40        112.15   
   0.56072        555.64        136.62        568.24        103.72   
   0.56232        558.25        128.66        569.82        95.187   
   0.56393        560.64        120.50        571.14        86.573   
   0.56553        562.77        112.30        572.19        77.889   
   0.56713        564.68        103.86        572.97        69.147   
   0.56874        566.34        95.369        573.48        60.360   
   0.57034        567.71        86.900        573.71        51.543   
   0.57194        568.82        78.269        573.66        42.707   
      0.57355     569.66730      69.61437     573.32996      33.86697
      0.57515     570.25262      60.86905     572.72174      25.03639
      0.57675     570.55896      52.08265     571.83496      16.22903
      0.57836     570.58417      43.32809     570.67065       7.45784
      0.57996     570.32092      34.55838     569.23193      -1.26360
      0.58156     569.79224      25.75120     567.52197      -9.92192
      0.58317     568.97925      17.03455     565.54486     -18.50500
      0.58477     567.89215       8.19053     563.30646     -27.00013
   0.58637        566.53       -.42087        560.81       -35.395   
      0.58798     564.89618      -9.01792     558.06738     -43.67892
      0.58958     563.01050     -17.58813     555.08032     -51.84043
      0.59118     560.84094     -26.07876     551.85870     -59.86906
      0.59279     558.42480     -34.44214     548.41016     -67.75543
      0.59439     555.75330     -42.77812     544.74377     -75.49014
      0.59599     552.84686     -50.81544     540.86865     -83.06484
      0.59760     549.69556     -58.87759     536.79456     -90.47143
      0.59920     546.30493     -66.72889     532.53162     -97.70337
      0.60080     542.72729     -74.52025     528.08905    -104.75394
      0.60240     538.92731     -82.00935     523.47778    -111.61735
      0.60401     534.92157     -89.41245     518.70807    -118.28905
      0.60561     530.73486     -96.69023     513.79083    -124.76448
      0.60721     526.33282    -103.70775     508.73636    -131.04002
      0.60882     521.78748    -110.63146     503.55566    -137.11316
      0.61042     517.09631    -117.30448     498.25836    -142.98145
      0.61202     512.24237    -123.74677     492.85605    -148.64323
      0.61363     507.23386    -130.06361     487.35791    -154.09776
      0.61523     502.14972    -136.14130     481.77469    -159.34428
      0.61683     496.86444    -141.97310     476.11606    -164.38329
      0.61844     491.54315    -147.61240     470.39197    -169.21507
      0.62004     486.10150    -153.11310     464.61160    -173.84125
      0.62164     480.53110    -158.45934     458.78366    -178.26334
      0.62325     474.91840    -163.51627     452.91690    -182.48309
      0.62485     469.25974    -168.35286     447.02014    -186.50336
      0.62645     463.53247    -172.94466     441.10117    -190.32666
      0.62806     457.73447    -177.39742     435.16772    -193.95627
