#                                                           
#  **    **    **     ****     ****  ******     *******     
# //**  **    ****   /**/**   **/** /*////**   **/////**    
#  //****    **//**  /**//** ** /** /*   /**  **     //**   
#   //**    **  //** /** //***  /** /******  /**      /**   
#    /**   **********/**  //*   /** /*//// **/**      /**   
#    /**  /**//////**/**   /    /** /*    /**//**     **    
#    /**  /**     /**/**        /** /*******  //*******     
#    //   //      // //         //  ///////    ///////      
#                                                           
#        Version 4.3.0 Revision 15652 Hash 9dc5f79          
#                  MPI+SLK+OpenMP Build                     
#                http://www.yambo-code.org                  
#
# Absorption @ Q(1) [q->0 direction] : 1.0000000  0.0000000  0.0000000
#
#
# - Energies      are Perdew, Burke & Ernzerhof(X)+Perdew, Burke & Ernzerhof(C)
# - Wavefunctions are Perdew, Burke & Ernzerhof(X)+Perdew, Burke & Ernzerhof(C)
#
# - The Green`s function is Retarded -
# - Using the Length Gauge -
# - [r,Vnl] *is* included -
#
#    E/ev[1]       EPS-Im[2]     EPS-Re[3]     EPSo-Im[4]    EPSo-Re[5]
#
   0.20000        42.422        263.47        40.488        268.79   
   0.20160        42.936        263.92        41.017        269.28   
   0.20321        43.464        264.39        41.551        269.78   
   0.20481        43.999        264.88        42.092        270.28   
   0.20641        44.540        265.36        42.640        270.79   
   0.20802        45.084        265.85        43.195        271.30   
   0.20962        45.638        266.34        43.756        271.82   
   0.21122        46.194        266.84        44.325        272.34   
   0.21283        46.768        267.34        44.900        272.87   
   0.21443        47.336        267.83        45.483        273.40   
   0.21603        47.922        268.35        46.073        273.94   
   0.21764        48.512        268.88        46.671        274.48   
   0.21924        49.102        269.38        47.277        275.03   
   0.22084        49.703        269.90        47.891        275.58   
   0.22244        50.320        270.44        48.512        276.14   
   0.22405        50.945        270.98        49.142        276.70   
   0.22565        51.560        271.50        49.780        277.27   
   0.22725        52.200        272.05        50.427        277.84   
   0.22886        52.843        272.59        51.082        278.42   
   0.23046        53.499        273.15        51.746        279.00   
   0.23206        54.169        273.72        52.419        279.59   
   0.23367        54.839        274.28        53.101        280.18   
   0.23527        55.513        274.83        53.793        280.77   
   0.23687        56.200        275.39        54.494        281.38   
   0.23848        56.914        276.00        55.205        281.98   
   0.24008        57.610        276.56        55.926        282.59   
   0.24168        58.334        277.15        56.657        283.21   
   0.24329        59.072        277.76        57.398        283.83   
   0.24489        59.803        278.34        58.150        284.46   
   0.24649        60.558        278.94        58.912        285.09   
   0.24810        61.309        279.52        59.686        285.72   
   0.24970        62.076        280.12        60.470        286.36   
   0.25130        62.863        280.74        61.266        287.01   
   0.25291        63.658        281.36        62.073        287.65   
   0.25451        64.460        281.96        62.892        288.31   
   0.25611        65.282        282.59        63.723        288.96   
   0.25772        66.105        283.21        64.566        289.62   
   0.25932        66.949        283.84        65.422        290.29   
   0.26092        67.802        284.49        66.290        290.96   
   0.26253        68.672        285.12        67.171        291.63   
   0.26413        69.540        285.74        68.065        292.31   
   0.26573        70.441        286.40        68.973        292.99   
   0.26733        71.339        287.04        69.894        293.67   
   0.26894        72.250        287.67        70.829        294.36   
   0.27054        73.193        288.35        71.778        295.05   
   0.27214        74.136        288.99        72.741        295.74   
   0.27375        75.088        289.64        73.719        296.44   
   0.27535        76.064        290.30        74.712        297.14   
   0.27695        77.069        290.99        75.720        297.84   
   0.27856        78.060        291.63        76.743        298.55   
   0.28016        79.081        292.31        77.782        299.26   
   0.28176        80.116        292.97        78.836        299.96   
   0.28337        81.162        293.63        79.907        300.68   
   0.28497        82.229        294.30        80.994        301.39   
   0.28657        83.308        294.97        82.097        302.10   
   0.28818        84.405        295.64        83.218        302.82   
   0.28978        85.530        296.33        84.355        303.54   
   0.29138        86.661        297.00        85.510        304.26   
   0.29299        87.810        297.66        86.683        304.97   
   0.29459        88.968        298.32        87.873        305.69   
   0.29619        90.160        299.01        89.082        306.41   
   0.29780        91.348        299.66        90.308        307.13   
   0.29940        92.579        300.35        91.554        307.85   
   0.30100        93.828        301.03        92.818        308.56   
   0.30261        95.070        301.68        94.102        309.28   
   0.30421        96.353        302.36        95.404        309.99   
   0.30581        97.637        303.00        96.726        310.70   
   0.30741        98.954        303.67        98.068        311.41   
   0.30902        100.30        304.33        99.430        312.12   
   0.31062        101.63        304.97        100.81        312.82   
   0.31222        103.02        305.63        102.21        313.52   
   0.31383        104.40        306.27        103.64        314.22   
      0.31543     105.81873     306.91724     105.07835     314.90817
      0.31703     107.25021     307.54639     106.54198     315.59418
      0.31864     108.68779     308.15115     108.02643     316.27487
      0.32024     110.17446     308.79492     109.53174     316.94958
      0.32184     111.65884     309.39600     111.05809     317.61786
      0.32345     113.17154     310.01199     112.60558     318.27927
      0.32505     114.71603     310.61478     114.17422     318.93344
      0.32665     116.25605     311.18298     115.76395     319.57959
      0.32826     117.83462     311.76590     117.37502     320.21729
      0.32986     119.42331     312.34473     119.00730     320.84637
      0.33146     121.04614     312.90677     120.66069     321.46573
      0.33307     122.67584     313.45810     122.33518     322.07520
      0.33467     124.34057     314.00003     124.03091     322.67416
      0.33627     126.00190     314.52161     125.74751     323.26205
      0.33788     127.69229     315.02911     127.48498     323.83832
      0.33948     129.41069     315.54251     129.24316     324.40240
      0.34108     131.15091     316.02893     131.02200     324.95398
      0.34269     132.89812     316.51242     132.82097     325.49219
      0.34429     134.67905     316.96545     134.64017     326.01666
      0.34589     136.46194     317.39948     136.47931     326.52722
      0.34749     138.28839     317.84286     138.33792     327.02274
      0.34910     140.12216     318.26111     140.21585     327.50327
      0.35070     141.95218     318.65466     142.11273     327.96793
      0.35230     143.83041     319.05212     144.02820     328.41629
      0.35391     145.71376     319.40262     145.96193     328.84824
      0.35551     147.59160     319.72806     147.91339     329.26315
      0.35711     149.51828     320.07849     149.88216     329.66055
      0.35872     151.45108     320.38956     151.86794     330.04044
      0.36032     153.39970     320.68353     153.87006     330.40201
      0.36192     155.35063     320.96475     155.88806     330.74527
      0.36353     157.32890     321.21313     157.92137     331.06961
      0.36513     159.33569     321.45105     159.96959     331.37497
      0.36673     161.32263     321.65280     162.03218     331.66132
      0.36834     163.33159     321.85178     164.10825     331.92847
      0.36994     165.36154     322.02280     166.19754     332.17593
      0.37154     167.39854     322.15732     168.29932     332.40405
      0.37315     169.43552     322.27786     170.41293     332.61273
      0.37475     171.50125     322.39841     172.53802     332.80161
      0.37635     173.57771     322.50320     174.67381     332.97131
      0.37796     175.65585     322.56146     176.81970     333.12155
      0.37956     177.73714     322.62900     178.97510     333.25250
      0.38116     179.80971     322.63354     181.13943     333.36481
      0.38277     181.91566     322.66006     183.31233     333.45816
      0.38437     184.02673     322.64536     185.49298     333.53320
      0.38597     186.11966     322.61105     187.68114     333.59021
      0.38758     188.23993     322.56052     189.87605     333.62979
      0.38918     190.35098     322.49042     192.07751     333.65228
      0.39078     192.47148     322.41861     194.28500     333.65839
      0.39238     194.61667     322.31674     196.49829     333.64844
      0.39399     196.73859     322.18390     198.71677     333.62338
      0.39559     198.84302     322.04507     200.94054     333.58350
      0.39719     201.02429     321.92267     203.16930     333.52982
      0.39880     203.11253     321.73413     205.40294     333.46286
      0.40040     205.26062     321.55753     207.64142     333.38358
      0.40200     207.40300     321.37051     209.88472     333.29294
      0.40361     209.54163     321.16870     212.13293     333.19150
      0.40521     211.66464     320.95715     214.38635     333.08051
      0.40681     213.82730     320.71817     216.64536     332.96030
      0.40842     215.97386     320.49353     218.91010     332.83212
      0.41002     218.10916     320.24860     221.18097     332.69653
      0.41162     220.27422     320.00101     223.45883     332.55499
      0.41323     222.41641     319.73779     225.74417     332.40787
      0.41483     224.63242     319.48471     228.03770     332.25638
      0.41643     226.76822     319.21497     230.34053     332.10114
      0.41804     228.96738     318.96100     232.65349     331.94278
      0.41964     231.07385     318.63919     234.97708     331.78247
      0.42124     233.30240     318.39380     237.31381     331.62045
      0.42285     235.50615     318.11111     239.66373     331.45749
      0.42445     237.68549     317.81918     242.02873     331.29443
      0.42605     239.88528     317.53244     244.41028     331.13138
      0.42766     242.13040     317.27023     246.80972     330.96869
      0.42926     244.37718     316.97946     249.22885     330.80688
      0.43086     246.66061     316.71555     251.66930     330.64621
      0.43246     248.89682     316.42087     254.13277     330.48639
      0.43407     251.14934     316.11743     256.62112     330.32785
      0.43567     253.50591     315.86230     259.13647     330.17041
      0.43727     255.82350     315.58597     261.68079     330.01328
      0.43888     258.16965     315.30026     264.25583     329.85657
      0.44048     260.51971     315.02951     266.86359     329.69946
      0.44208     263.00623     314.77850     269.50677     329.54156
      0.44369     265.38651     314.48651     272.18695     329.38156
      0.44529     267.86542     314.20709     274.90634     329.21927
      0.44689     270.32526     313.91296     277.66727     329.05276
      0.44850     272.92572     313.64893     280.47159     328.88110
      0.45010     275.47995     313.35098     283.32181     328.70279
      0.45170     278.05594     313.05438     286.21979     328.51602
      0.45331     280.70959     312.73788     289.16776     328.31946
      0.45491     283.42734     312.44351     292.16779     328.11078
      0.45651     286.18314     312.12808     295.22159     327.88812
      0.45812     288.93460     311.78513     298.33151     327.64926
      0.45972     291.75555     311.44101     301.49933     327.39172
      0.46132     294.63712     311.09064     304.72687     327.11270
      0.46293     297.59283     310.71066     308.01584     326.80997
      0.46453     300.60138     310.30780     311.36780     326.48044
      0.46613     303.59628     309.88107     314.78442     326.12057
      0.46774     306.73499     309.45361     318.26721     325.72787
      0.46934     309.90726     308.96341     321.81747     325.29861
      0.47094     313.10135     308.45978     325.43643     324.82922
      0.47255     316.34042     307.91513     329.12509     324.31647
      0.47415     319.64728     307.30612     332.88470     323.75616
      0.47575     323.04916     306.70209     336.71567     323.14447
      0.47735     326.49692     306.02637     340.61871     322.47726
      0.47896     330.04034     305.30740     344.59436     321.75064
      0.48056     333.58517     304.56094     348.64307     320.95969
      0.48216     337.23636     303.73111     352.76434     320.10065
      0.48377     340.94730     302.83817     356.95871     319.16840
      0.48537     344.73495     301.91177     361.22552     318.15857
      0.48697     348.53894     300.87427     365.56439     317.06592
      0.48858     352.41971     299.79745     369.97437     315.88620
      0.49018     356.38937     298.66376     374.45438     314.61386
      0.49178     360.36673     297.38498     379.00330     313.24402
      0.49339     364.47000     296.09897     383.61935     311.77155
      0.49499     368.56152     294.65186     388.30096     310.19110
      0.49659     372.76456     293.17804     393.04608     308.49762
      0.49820     376.96783     291.55353     397.85168     306.68585
      0.49980     381.24533     289.85815     402.71582     304.75024
      0.50140     385.60135     288.10019     407.63489     302.68564
      0.50301     389.96616     286.18954     412.60559     300.48666
      0.50461     394.41614     284.14572     417.62439     298.14801
      0.50621     398.86612     281.98358     422.68698     295.66449
      0.50782     403.30429     279.72073     427.78925     293.03101
      0.50942     407.89816     277.31491     432.92581     290.24210
      0.51102     412.43741     274.78491     438.09198     287.29288
      0.51263     417.08194     272.10376     443.28210     284.17862
      0.51423     421.65790     269.31891     448.48965     280.89481
      0.51583     426.31134     266.36353     453.70889     277.43665
      0.51743     430.99237     263.24084     458.93314     273.79987
      0.51904     435.64078     260.03851     464.15485     269.98065
      0.52064     440.26447     256.64841     469.36700     265.97495
      0.52224     444.95065     253.04547     474.56110     261.77939
      0.52385     449.55658     249.39088     479.72946     257.39124
      0.52545     454.16479     245.49701     484.86331     252.80736
      0.52705     458.73846     241.43370     489.95383     248.02548
      0.52866     463.33627     237.20760     494.99124     243.04381
      0.53026     467.87253     232.89561     499.96655     237.86115
      0.53186     472.35791     228.22479     504.86957     232.47652
      0.53347     476.78812     223.54593     509.69052     226.88911
      0.53507     481.15421     218.69469     514.41870     221.09984
      0.53667     485.47995     213.58116     519.04382     215.10896
      0.53828     489.64401     208.38203     523.55536     208.91823
      0.53988     493.73001     202.95230     527.94238     202.52998
      0.54148     497.81232     197.34959     532.19427     195.94652
      0.54309     501.72379     191.58647     536.30017     189.17172
      0.54469     505.50275     185.75548     540.24902     182.20993
      0.54629     509.24719     179.56236     544.03040     175.06563
      0.54790     512.78583     173.34871     547.63416     167.74461
   0.54950        516.18        166.91        551.05        160.25   
   0.55110        519.46        160.41        554.27        152.60   
   0.55271        522.58        153.73        557.28        144.79   
   0.55431        525.50        146.90        560.07        136.83   
   0.55591        528.29        139.92        562.63        128.74   
   0.55752        530.90        132.71        564.96        120.52   
   0.55912        533.30        125.42        567.05        112.18   
   0.56072        535.47        118.17        568.89        103.73   
   0.56232        537.50        110.72        570.47        95.189   
   0.56393        539.28        103.08        571.80        86.565   
   0.56553        540.86        95.509        572.85        77.870   
   0.56713        542.21        87.773        573.63        69.117   
   0.56874        543.33        79.980        574.14        60.320   
   0.57034        544.29        72.142        574.37        51.492   
   0.57194        544.95        64.195        574.32        42.645   
   0.57355        545.40        56.246        573.99        33.794   
      0.57515     545.57269      48.34922     573.38501      24.95278
      0.57675     545.53796      40.25501     572.49725      16.13468
      0.57836     545.29834      32.24498     571.33197       7.35278
      0.57996     544.74377      24.33329     569.89154      -1.37930
      0.58156     544.01422      16.27872     568.17957     -10.04824
      0.58317     542.98499       8.34934     566.20050     -18.64181
   0.58477        541.76       0.29740        563.96       -27.147   
      0.58637     540.29327      -7.51808     561.46167     -35.55253
      0.58798     538.57990     -15.22685     558.71417     -43.84652
      0.58958     536.64728     -23.00974     555.72369     -52.01804
      0.59118     534.50641     -30.65026     552.49817     -60.05646
      0.59279     532.13184     -38.27354     549.04578     -67.95245
      0.59439     529.51666     -45.69529     545.37524     -75.69673
      0.59599     526.70795     -53.11799     541.49554     -83.28076
      0.59760     523.71252     -60.39775     537.41687     -90.69643
      0.59920     520.53625     -67.45995     533.14850     -97.93725
      0.60080     517.12128     -74.51712     528.70074    -104.99659
      0.60240     513.57520     -81.31850     524.08417    -111.86834
      0.60401     509.81552     -88.06741     519.30865    -118.54828
      0.60561     505.91171     -94.64225     514.38586    -125.03175
      0.60721     501.85382    -101.03194     509.32562    -131.31511
      0.60882     497.66394    -107.23792     504.13843    -137.39583
      0.61042     493.32053    -113.31064     498.83499    -143.27135
      0.61202     488.81357    -119.26933     493.42618    -148.94016
      0.61363     484.21179    -125.00475     487.92160    -154.40138
      0.61523     479.51569    -130.54588     482.33203    -159.65456
      0.61683     474.67606    -135.92474     476.66656    -164.69983
      0.61844     469.75214    -141.16914     470.93546    -169.53767
      0.62004     464.75888    -146.18053     465.14825    -174.16975
      0.62164     459.66656    -151.03537     459.31323    -178.59734
      0.62325     454.52005    -155.69025     453.43970    -182.82246
      0.62485     449.32306    -160.14323     447.53586    -186.84761
      0.62645     444.10526    -164.37929     441.60989    -190.67589
      0.62806     438.74298    -168.56761     435.66937    -194.31006
