#                                                           
# :::   :::   :::     ::::    ::::  :::::::::   ::::::::    
# :+:   :+: :+: :+:   +:+:+: :+:+:+ :+:    :+: :+:    :+:   
#  +:+ +:+ +:+   +:+  +:+ +:+:+ +:+ +:+    +:+ +:+    +:+   
#   +#++: +#++:++#++: +#+  +:+  +#+ +#++:++#+  +#+    +:+   
#    +#+  +#+     +#+ +#+       +#+ +#+    +#+ +#+    +#+   
#    #+#  #+#     #+# #+#       #+# #+#    #+# #+#    #+#   
#    ###  ###     ### ###       ### #########   ########    
#                                                           
#                                                           
#        Version 4.3.0 Revision 15652 Hash 9dc5f79          
#                  MPI+SLK+OpenMP Build                     
#                http://www.yambo-code.org                  
#
# Absorption @ Q(1) [q->0 direction] : 1.0000000  0.0000000  0.0000000
#
#
# - Energies      are Perdew, Burke & Ernzerhof(X)+Perdew, Burke & Ernzerhof(C)
# - Wavefunctions are Perdew, Burke & Ernzerhof(X)+Perdew, Burke & Ernzerhof(C)
#
# - The Green`s function is Retarded -
# - Using the Length Gauge -
# - [r,Vnl] *is* included -
#
#    E/ev[1]       EPS-Im[2]     EPS-Re[3]     EPSo-Im[4]    EPSo-Re[5]
#
   0.20000        39.600        265.89        40.450        268.55   
   0.20160        40.116        266.37        40.977        269.04   
   0.20321        40.641        266.86        41.512        269.54   
   0.20481        41.168        267.36        42.052        270.04   
   0.20641        41.705        267.85        42.599        270.55   
   0.20802        42.246        268.35        43.153        271.06   
   0.20962        42.790        268.84        43.714        271.58   
   0.21122        43.345        269.36        44.282        272.10   
   0.21283        43.916        269.89        44.857        272.63   
   0.21443        44.485        270.41        45.440        273.16   
   0.21603        45.060        270.93        46.029        273.70   
   0.21764        45.645        271.48        46.627        274.24   
   0.21924        46.231        271.98        47.232        274.79   
   0.22084        46.832        272.53        47.845        275.34   
   0.22244        47.441        273.08        48.466        275.89   
   0.22405        48.062        273.64        49.095        276.46   
   0.22565        48.677        274.17        49.733        277.02   
   0.22725        49.311        274.74        50.379        277.59   
   0.22886        49.950        275.31        51.033        278.17   
   0.23046        50.603        275.88        51.697        278.75   
   0.23206        51.259        276.43        52.369        279.34   
   0.23367        51.923        277.02        53.051        279.93   
   0.23527        52.600        277.60        53.742        280.53   
   0.23687        53.282        278.18        54.442        281.13   
   0.23848        53.980        278.79        55.153        281.73   
   0.24008        54.684        279.37        55.873        282.35   
   0.24168        55.397        279.98        56.603        282.96   
   0.24329        56.116        280.56        57.344        283.58   
   0.24489        56.857        281.19        58.095        284.21   
   0.24649        57.602        281.81        58.857        284.84   
   0.24810        58.359        282.42        59.629        285.47   
   0.24970        59.122        283.04        60.413        286.11   
   0.25130        59.895        283.67        61.208        286.75   
   0.25291        60.690        284.31        62.014        287.40   
   0.25451        61.493        284.94        62.833        288.05   
   0.25611        62.299        285.59        63.663        288.71   
   0.25772        63.119        286.20        64.505        289.37   
   0.25932        63.962        286.89        65.360        290.03   
   0.26092        64.811        287.52        66.227        290.70   
   0.26253        65.677        288.21        67.108        291.37   
   0.26413        66.552        288.85        68.001        292.05   
   0.26573        67.437        289.51        68.908        292.73   
   0.26733        68.325        290.15        69.828        293.41   
   0.26894        69.243        290.83        70.762        294.10   
   0.27054        70.173        291.52        71.710        294.79   
   0.27214        71.116        292.18        72.673        295.48   
   0.27375        72.075        292.86        73.650        296.18   
   0.27535        73.043        293.54        74.642        296.88   
   0.27695        74.020        294.22        75.649        297.58   
   0.27856        75.028        294.92        76.671        298.28   
   0.28016        76.031        295.59        77.709        298.99   
   0.28176        77.073        296.29        78.762        299.70   
   0.28337        78.106        296.96        79.832        300.41   
   0.28497        79.164        297.66        80.918        301.12   
   0.28657        80.249        298.36        82.020        301.84   
   0.28818        81.349        299.07        83.140        302.55   
   0.28978        82.458        299.76        84.276        303.27   
   0.29138        83.588        300.44        85.430        303.98   
   0.29299        84.727        301.13        86.602        304.70   
   0.29459        85.893        301.84        87.791        305.42   
   0.29619        87.063        302.51        88.998        306.14   
   0.29780        88.269        303.23        90.224        306.85   
   0.29940        89.483        303.93        91.469        307.57   
   0.30100        90.726        304.62        92.732        308.29   
   0.30261        91.972        305.30        94.014        309.00   
   0.30421        93.241        305.98        95.315        309.71   
   0.30581        94.540        306.67        96.636        310.43   
   0.30741        95.839        307.34        97.977        311.13   
   0.30902        97.155        308.01        99.337        311.84   
   0.31062        98.513        308.71        100.72        312.54   
   0.31222        99.881        309.36        102.12        313.24   
   0.31383        101.27        310.04        103.54        313.93   
      0.31543     102.68771     310.72852     104.98089     314.62466
      0.31703     104.09553     311.34714     106.44316     315.30981
      0.31864     105.55659     312.01059     107.92625     315.98932
      0.32024     107.02060     312.68509     109.43021     316.66342
      0.32184     108.52943     313.32990     110.95517     317.33072
      0.32345     110.03446     313.96579     112.50127     317.99142
      0.32505     111.54633     314.54980     114.06845     318.64471
      0.32665     113.09919     315.18179     115.65681     319.28995
      0.32826     114.66022     315.77701     117.26631     319.92706
      0.32986     116.26178     316.38663     118.89719     320.55518
      0.33146     117.85539     316.95404     120.54903     321.17374
      0.33307     119.49749     317.53769     122.22206     321.78232
      0.33467     121.14530     318.11166     123.91621     322.38052
      0.33627     122.81351     318.66238     125.63121     322.96750
      0.33788     124.48995     319.20023     127.36710     323.54300
      0.33948     126.21864     319.73193     129.12372     324.10635
      0.34108     127.94492     320.24060     130.90077     324.65714
      0.34269     129.67828     320.72629     132.69818     325.19446
      0.34429     131.43239     321.21515     134.51578     325.71826
      0.34589     133.20650     321.67752     136.35307     326.22775
      0.34749     135.04057     322.17551     138.20999     326.72253
      0.34910     136.85234     322.57462     140.08621     327.20215
      0.35070     138.68114     323.02191     141.98134     327.66617
      0.35230     140.54118     323.42859     143.89497     328.11386
      0.35391     142.42136     323.82706     145.82683     328.54504
      0.35551     144.28607     324.18942     147.77649     328.95923
      0.35711     146.18501     324.53809     149.74338     329.35580
      0.35872     148.12010     324.88187     151.72725     329.73486
      0.36032     150.05132     325.19702     153.72748     330.09579
      0.36192     151.97734     325.48410     155.74344     330.43826
      0.36353     153.95386     325.78400     157.77487     330.76199
      0.36513     155.93576     326.06680     159.82109     331.06659
      0.36673     157.89983     326.27298     161.88165     331.35233
      0.36834     159.91737     326.49988     163.95569     331.61856
      0.36994     161.91718     326.72464     166.04291     331.86551
      0.37154     163.94159     326.90430     168.14261     332.09290
      0.37315     165.94148     327.03610     170.25417     332.30081
      0.37475     167.97778     327.18515     172.37706     332.48923
      0.37635     170.02477     327.33298     174.51071     332.65793
      0.37796     172.08751     327.42960     176.65439     332.80792
      0.37956     174.13211     327.50812     178.80762     332.93808
      0.38116     176.20412     327.58884     180.96980     333.04953
      0.38277     178.24480     327.61057     183.14038     333.14236
      0.38437     180.35086     327.66702     185.31873     333.21686
      0.38597     182.43727     327.67526     187.50465     333.27344
      0.38758     184.50076     327.67078     189.69724     333.31229
      0.38918     186.57025     327.62131     191.89627     333.33426
      0.39078     188.69545     327.60867     194.10144     333.33960
      0.39238     190.75841     327.53140     196.31229     333.32928
      0.39399     192.85181     327.46725     198.52849     333.30350
      0.39559     194.93755     327.37924     200.74979     333.26303
      0.39719     197.03841     327.29764     202.97612     333.20895
      0.39880     199.12672     327.18207     205.20728     333.14133
      0.40040     201.21587     327.06277     207.44330     333.06168
      0.40200     203.31180     326.92813     209.68404     332.97031
      0.40361     205.42986     326.78687     211.92972     332.86841
      0.40521     207.49297     326.61453     214.18056     332.75668
      0.40681     209.58762     326.47885     216.43689     332.63599
      0.40842     211.71017     326.34775     218.69901     332.50742
      0.41002     213.80260     326.15143     220.96724     332.37152
      0.41162     215.90581     325.97531     223.24242     332.22931
      0.41323     218.02571     325.80783     225.52501     332.08157
      0.41483     220.10458     325.62152     227.81581     331.92978
      0.41643     222.23590     325.45566     230.11583     331.77402
      0.41804     224.33865     325.26483     232.42604     331.61526
      0.41964     226.46349     325.09906     234.74673     331.45444
      0.42124     228.58951     324.90891     237.08067     331.29205
      0.42285     230.71442     324.72824     239.42780     331.12851
      0.42445     232.86674     324.56366     241.78986     330.96503
      0.42605     235.04196     324.43213     244.16829     330.80154
      0.42766     237.19925     324.24469     246.56476     330.63855
      0.42926     239.39671     324.10327     248.98076     330.47635
      0.43086     241.63472     323.94556     251.41792     330.31522
      0.43246     243.82713     323.78824     253.87823     330.15527
      0.43407     246.07422     323.67471     256.36365     329.99622
      0.43567     248.35492     323.53891     258.87552     329.83850
      0.43727     250.60452     323.39197     261.41647     329.68118
      0.43888     252.93280     323.28961     263.98822     329.52386
      0.44048     255.26921     323.14722     266.59271     329.36679
      0.44208     257.61191     323.05997     269.23239     329.20840
      0.44369     260.02670     322.97678     271.90894     329.04822
      0.44529     262.46231     322.84705     274.62473     328.88544
      0.44689     264.95813     322.78781     277.38193     328.71863
      0.44850     267.42203     322.68488     280.18271     328.54688
      0.45010     269.96783     322.61136     283.02927     328.36838
      0.45170     272.60577     322.52219     285.92340     328.18149
      0.45331     275.22064     322.40054     288.86743     327.98474
      0.45491     277.88788     322.31766     291.86349     327.77597
      0.45651     280.63776     322.23248     294.91318     327.55313
      0.45812     283.39755     322.12259     298.01904     327.31436
      0.45972     286.26166     322.03397     301.18280     327.05673
      0.46132     289.18350     321.90924     304.40598     326.77789
      0.46293     292.11295     321.80133     307.69067     326.47498
      0.46453     295.11566     321.62192     311.03815     326.14554
      0.46613     298.20642     321.47406     314.45032     325.78586
      0.46774     301.31351     321.26666     317.92847     325.39346
      0.46934     304.51288     321.08386     321.47418     324.96463
      0.47094     307.78812     320.84039     325.08832     324.49548
      0.47255     311.12585     320.59152     328.77216     323.98318
      0.47415     314.54080     320.29291     332.52667     323.42322
      0.47575     317.99731     319.95001     336.35287     322.81226
      0.47735     321.54434     319.56931     340.25076     322.14572
      0.47896     325.18445     319.19266     344.22119     321.41977
      0.48056     328.88034     318.71475     348.26459     320.62973
      0.48216     332.62073     318.20355     352.38080     319.77151
      0.48377     336.52011     317.63690     356.56952     318.84039
      0.48537     340.38885     317.02191     360.83093     317.83151
      0.48697     344.37872     316.32529     365.16415     316.74033
      0.48858     348.45291     315.55945     369.56839     315.56180
      0.49018     352.61456     314.74240     374.04266     314.29074
      0.49178     356.81931     313.83066     378.58585     312.92249
      0.49339     361.12143     312.82867     383.19604     311.45203
      0.49499     365.48029     311.73743     387.87173     309.87338
      0.49659     369.93854     310.56091     392.61069     308.18188
      0.49820     374.42014     309.34134     397.41037     306.37213
      0.49980     379.06409     307.90915     402.26804     304.43896
      0.50140     383.64001     306.48633     407.18100     302.37695
      0.50301     388.37482     304.90454     412.14545     300.18063
      0.50461     393.12115     303.17383     417.15784     297.84488
      0.50621     397.92789     301.31903     422.21411     295.36417
      0.50782     402.79788     299.40451     427.30981     292.73355
      0.50942     407.82059     297.25427     432.44000     289.94818
      0.51102     412.76553     295.05032     437.59961     287.00272
      0.51263     417.86020     292.65808     442.78311     283.89221
      0.51423     422.89343     290.13519     447.98422     280.61230
      0.51583     427.99789     287.44598     453.19705     277.15833
      0.51743     433.16931     284.62292     458.41473     273.52603
      0.51904     438.27887     281.61591     463.63004     269.71143
      0.52064     443.53839     278.43176     468.83542     265.71048
      0.52224     448.71844     275.12042     474.02332     261.52023
      0.52385     453.88821     271.61295     479.18512     257.13730
      0.52545     459.10629     267.85251     484.31262     252.55885
      0.52705     464.31546     263.95071     489.39670     247.78287
      0.52866     469.52612     259.89597     494.42795     242.80750
      0.53026     474.70953     255.58508     499.39685     237.63091
      0.53186     479.84482     251.12456     504.29376     232.25294
      0.53347     484.92606     246.45346     509.10892     226.67232
      0.53507     489.99002     241.57277     513.83081     220.89000
      0.53667     494.93707     236.53711     518.45050     214.90642
      0.53828     499.88358     231.30052     522.95612     208.72325
      0.53988     504.70328     225.80679     527.33783     202.34274
      0.54148     509.45932     220.11465     531.58429     195.76730
      0.54309     514.12555     214.17929     535.68518     189.00081
      0.54469     518.62958     208.12386     539.62909     182.04755
      0.54629     523.01624     201.89954     543.40601     174.91194
      0.54790     527.35516     195.37688     547.00500     167.59988
   0.54950        531.50        188.74        550.42        160.12   
   0.55110        535.49        181.86        553.63        152.47   
   0.55271        539.30        174.88        556.63        144.67   
   0.55431        542.95        167.66        559.42        136.73   
   0.55591        546.41        160.28        561.98        128.64   
   0.55752        549.71        152.68        564.31        120.43   
   0.55912        552.72        145.08        566.40        112.10   
   0.56072        555.60        137.20        568.24        103.66   
   0.56232        558.24        129.20        569.82        95.132   
   0.56393        560.65        121.00        571.14        86.519   
   0.56553        562.79        112.84        572.19        77.835   
   0.56713        564.71        104.42        572.97        69.093   
   0.56874        566.37        95.985        573.48        60.306   
   0.57034        567.79        87.419        573.71        51.488   
   0.57194        568.91        78.867        573.66        42.652   
      0.57355     569.79132      70.17146     573.32996      33.81248
      0.57515     570.39056      61.44076     572.72174      24.98189
      0.57675     570.71490      52.66885     571.83496      16.17453
      0.57836     570.74628      43.96542     570.67072       7.40334
      0.57996     570.52435      35.07360     569.23199      -1.31810
      0.58156     570.00104      26.37422     567.52197      -9.97642
      0.58317     569.21588      17.51351     565.54492     -18.55950
      0.58477     568.15906       8.81434     563.30646     -27.05464
   0.58637        566.81       0.57448E-1     560.81       -35.450   
      0.58798     565.20404      -8.53233     558.06744     -43.73342
      0.58958     563.31061     -17.03788     555.08032     -51.89493
      0.59118     561.17303     -25.50525     551.85870     -59.92356
      0.59279     558.77124     -33.95808     548.41022     -67.80993
      0.59439     556.10455     -42.30727     544.74384     -75.54464
      0.59599     553.23395     -50.36345     540.86865     -83.11935
      0.59760     550.09161     -58.44091     536.79462     -90.52592
      0.59920     546.72833     -66.27521     532.53162     -97.75787
      0.60080     543.16351     -74.01007     528.08911    -104.80845
      0.60240     539.37756     -81.59238     523.47778    -111.67185
      0.60401     535.35504     -89.00471     518.70807    -118.34350
      0.60561     531.21454     -96.23997     513.79083    -124.81892
      0.60721     526.83099    -103.31799     508.73642    -131.09448
      0.60882     522.31476    -110.19675     503.55573    -137.16760
      0.61042     517.58856    -116.94477     498.25836    -143.03589
      0.61202     512.74658    -123.44665     492.85605    -148.69771
      0.61363     507.75119    -129.67558     487.35794    -154.15221
      0.61523     502.65247    -135.79918     481.77475    -159.39873
      0.61683     497.42343    -141.68269     476.11606    -164.43771
      0.61844     492.06439    -147.42905     470.39197    -169.26952
      0.62004     486.64734    -152.88947     464.61163    -173.89571
      0.62164     481.14716    -158.07878     458.78366    -178.31778
      0.62325     475.53720    -163.19710     452.91699    -182.53755
      0.62485     469.82083    -168.12312     447.02014    -186.55782
      0.62645     464.09119    -172.77161     441.10117    -190.38110
      0.62806     458.29465    -177.28534     435.16772    -194.01073
