#                                                                     
#  **    **    **     ****     ****  ******     *******               
# //**  **    ****   /**/**   **/** /*////**   **/////**              
#  //****    **//**  /**//** ** /** /*   /**  **     //**             
#   //**    **  //** /** //***  /** /******  /**      /**             
#    /**   **********/**  //*   /** /*//// **/**      /**             
#    /**  /**//////**/**   /    /** /*    /**//**     **              
#    /**  /**     /**/**        /** /*******  //*******               
#    //   //      // //         //  ///////    ///////                
#                                                                     
# Version 5.2.0 Revision 22184 Hash (prev commit) 2871b0cee           
#                   Branch is bug-fixes                               
#         MPI+OpenMP+SLK+SLEPC+HDF5_MPI_IO Build                      
#                http://www.yambo-code.org                            
#
# Joint Density of states @ Q(1):   0.00000000     0.999999975E-5   0.00000000    [q->0 direction]
#
# [GEN] GF Energies                               : Perdew, Burke & Ernzerhof(X)+Perdew, Burke & Ernzerhof(C)
# [GEN] Green`s Function                          : Retarded
#
# [GEN] Gauge                                     : Velocity
# [GEN] [r,Vnl] included                          : yes
#
# DIP band range                                  :   1  18
# DIP band range limits                           :   9   7
# DIP e/h energy range                            :  -1.00000000     -1.00000000    [eV]
# RL vectors in the sum                           :   603
# [r,Vnl] included                                : yes
# Bands ordered                                   : yes
# Direct v evaluation                             : no
# Approach used                                   : G-space v
# Dipoles computed                                : R V P
# Wavefunctions                                   : Perdew, Burke & Ernzerhof(X)+Perdew, Burke & Ernzerhof(C)
#
#
#    E[1] [eV]          Im(jdos)           Re(jdos)
#
        0.200000           8.746873           141.7904
        0.219639           10.21317           141.5685
        0.239279           11.75608           141.2780
        0.258918           13.36003           140.9072
        0.278557           15.00953           140.4442
        0.298196           16.68664           139.8745
        0.317836           18.37084           139.1914
        0.337475           20.04022           138.3861
        0.357114           21.67031           137.4556
        0.376754           23.23581           136.4014
        0.396393           24.71099           135.2294
        0.416032           26.07173           133.9554
        0.435671           27.29543           132.5957
        0.455311           28.36508           131.1737
        0.474950           29.26783           129.7212
        0.494589           29.99876           128.2650
        0.514228           30.56111           126.8397
        0.533868           30.96499           125.4783
        0.553507           31.22813           124.2054
        0.573146           31.37454           123.0465
        0.592786           31.43318           122.0147
        0.612425           31.43382           121.1182
        0.632064           31.40746           120.3602
        0.651703           31.38298           119.7331
        0.671343           31.38538           119.2251
        0.690982           31.43645           118.8184
        0.710621           31.55125           118.4935
        0.730260           31.74082           118.2307
        0.749900           32.01068           118.0069
        0.769539           32.36181           117.7998
        0.789178           32.79099           117.5910
        0.808818           33.29140           117.3613
        0.828457           33.85322           117.0955
        0.848096           34.46498           116.7805
        0.867735           35.11270           116.4066
        0.887375           35.78149           115.9647
        0.907014           36.45573           115.4506
        0.926653           37.11852           114.8616
        0.946293           37.75237           114.1986
        0.965932           38.34096           113.4686
        0.985571           38.86648           112.6749
        1.005210           39.31409           111.8329
        1.024850           39.67106           110.9573
        1.044489           39.92851           110.0679
        1.064128           40.08240           109.1849
        1.083767           40.13345           108.3300
        1.103407           40.08817           107.5237
        1.123046           39.95761           106.7857
        1.142685           39.75784           106.1306
        1.162324           39.50500           105.5678
        1.181964           39.21869           105.1065
        1.201603           38.91732           104.7455
        1.221242           38.61850           104.4832
        1.240882           38.33836           104.3164
        1.260521           38.08989           104.2355
        1.280160           37.88511           104.2323
        1.299799           37.73305           104.2963
        1.319439           37.64138           104.4184
        1.339078           37.61476           104.5820
        1.358717           37.65659           104.7810
        1.378357           37.76718           105.0022
        1.397996           37.94629           105.2320
        1.417635           38.19121           105.4592
        1.437274           38.49708           105.6793
        1.456914           38.85799           105.8781
        1.476553           39.26578           106.0520
        1.496192           39.71240           106.1937
        1.515831           40.18818           106.3024
        1.535471           40.68419           106.3756
        1.555110           41.19128           106.4178
        1.574749           41.70283           106.4299
        1.594389           42.21122           106.4184
        1.614028           42.71272           106.3899
        1.633667           43.20511           106.3521
        1.653307           43.68940           106.3119
        1.672946           44.16677           106.2781
        1.692585           44.64309           106.2533
        1.712224           45.12357           106.2449
        1.731864           45.61547           106.2529
        1.751503           46.12690           106.2774
        1.771142           46.66525           106.3173
        1.790781           47.23692           106.3686
        1.810421           47.84662           106.4228
        1.830060           48.49889           106.4724
        1.849699           49.19468           106.5106
        1.869339           49.93283           106.5294
        1.888978           50.71148           106.5192
        1.908617           51.52528           106.4744
        1.928256           52.36900           106.3882
        1.947896           53.23595           106.2565
        1.967535           54.11761           106.0777
        1.987174           55.00720           105.8512
        2.006814           55.89767           105.5773
        2.026453           56.78308           105.2577
        2.046092           57.65749           104.8983
        2.065731           58.51676           104.5008
        2.085370           59.35907           104.0701
        2.105010           60.18048           103.6104
        2.124649           60.98162           103.1247
        2.144288           61.76194           102.6184
        2.163928           62.52006           102.0915
        2.183567           63.25669           101.5517
        2.203206           63.97177           100.9980
        2.222845           64.66589           100.4359
        2.242485           65.33971           99.86681
        2.262124           65.99553           99.29375
        2.281763           66.63504           98.71895
        2.301403           67.26022           98.14426
        2.321042           67.87395           97.57226
        2.340681           68.47941           97.00294
        2.360320           69.07964           96.43526
        2.379960           69.67654           95.86897
        2.399599           70.27303           95.30399
        2.419238           70.87017           94.73593
        2.438878           71.46841           94.16537
        2.458517           72.06676           93.58930
        2.478156           72.66464           93.00722
        2.497795           73.26170           92.41856
        2.517435           73.85666           91.82681
        2.537074           74.44830           91.23172
        2.556713           75.03990           90.63755
        2.576352           75.63300           90.04580
        2.595992           76.23187           89.45889
        2.615631           76.84329           88.87872
        2.635270           77.47371           88.30369
        2.654910           78.13033           87.73076
        2.674549           78.82055           87.15277
        2.694188           79.55154           86.56403
        2.713827           80.32717           85.95161
        2.733467           81.14973           85.30437
        2.753106           82.01828           84.60852
        2.772745           82.92892           83.84938
        2.792384           83.87289           83.01283
        2.812024           84.83908           82.08820
        2.831663           85.81358           81.06571
        2.851302           86.78005           79.93849
        2.870942           87.72046           78.70322
        2.890581           88.61485           77.36126
        2.910220           89.44601           75.91685
        2.929859           90.19695           74.37874
        2.949499           90.85147           72.75953
        2.969138           91.39836           71.07187
        2.988777           91.82806           69.33432
        3.008417           92.13298           67.56239
        3.028056           92.31391           65.77641
        3.047695           92.37062           63.99289
        3.067334           92.30713           62.22845
        3.086974           92.13170           60.49785
        3.106613           91.85302           58.81448
        3.126252           91.48183           57.18806
        3.145891           91.03126           55.62638
        3.165531           90.51323           54.13369
        3.185170           89.94078           52.71249
        3.204809           89.32537           51.36349
        3.224448           88.67802           50.08304
        3.244088           88.00736           48.86669
        3.263727           87.32130           47.70940
        3.283366           86.62428           46.60389
        3.303006           85.91928           45.54406
        3.322645           85.20644           44.52242
        3.342284           84.48393           43.53489
        3.361923           83.74847           42.57686
        3.381563           82.99758           41.64691
        3.401202           82.22625           40.74483
        3.420841           81.43053           39.87247
        3.440480           80.60695           39.03354
        3.460120           79.75434           38.23372
        3.479759           78.87269           37.47794
        3.499398           77.96290           36.77329
        3.519038           77.03012           36.12593
        3.538677           76.07980           35.54160
        3.558316           75.11730           35.02405
        3.577956           74.15168           34.57612
        3.597595           73.19218           34.19962
        3.617235           72.24714           33.89308
        3.636874           71.32638           33.65410
        3.656513           70.43758           33.47799
        3.676152           69.58778           33.35940
        3.695791           68.78322           33.29093
        3.715430           68.02914           33.26379
        3.735070           67.32702           33.27056
        3.754709           66.67903           33.30154
        3.774348           66.08449           33.34864
        3.793987           65.54031           33.40361
        3.813627           65.04314           33.45885
        3.833266           64.58914           33.50845
        3.852906           64.17220           33.54776
        3.872545           63.78691           33.57298
        3.892184           63.42604           33.58185
        3.911823           63.08394           33.57405
        3.931463           62.75439           33.54978
        3.951102           62.43259           33.51073
        3.970741           62.11399           33.45960
        3.990380           61.79383           33.39838
        4.010019           61.47081           33.33236
        4.029658           61.14177           33.26431
        4.049298           60.80647           33.19920
        4.068937           60.46467           33.14022
        4.088577           60.11706           33.09195
        4.108216           59.76472           33.05766
        4.127855           59.41108           33.04038
        4.147495           59.05727           33.04258
        4.167134           58.70792           33.06605
        4.186774           58.36562           33.11224
        4.206413           58.03392           33.18139
        4.226052           57.71703           33.27359
        4.245691           57.41739           33.38795
        4.265331           57.13881           33.52294
        4.284969           56.88383           33.67712
        4.304609           56.65445           33.84850
        4.324247           56.45317           34.03492
        4.343887           56.28148           34.23447
        4.363526           56.14128           34.44452
        4.383165           56.03432           34.66312
        4.402805           55.96062           34.88777
        4.422444           55.92273           35.11621
        4.442083           55.92190           35.34528
        4.461723           55.95874           35.57291
        4.481362           56.03551           35.79557
        4.501002           56.15265           36.00934
        4.520641           56.31123           36.21011
        4.540280           56.51107           36.39354
        4.559919           56.75274           36.55472
        4.579559           57.03446           36.68788
        4.599198           57.35456           36.78835
        4.618838           57.71071           36.85044
        4.638476           58.09924           36.86828
        4.658116           58.51561           36.83746
        4.677755           58.95425           36.75360
        4.697394           59.40816           36.61265
        4.717033           59.87079           36.41169
        4.736673           60.33399           36.14950
        4.756312           60.78962           35.82524
        4.775951           61.23029           35.44025
        4.795590           61.64641           34.99660
        4.815230           62.03047           34.49871
        4.834869           62.37593           33.95075
        4.854509           62.67582           33.35944
        4.874148           62.92577           32.73228
        4.893787           63.12211           32.07681
        4.913425           63.26318           31.40146
        4.933065           63.34743           30.71434
        4.952704           63.37737           30.02372
        4.972344           63.35506           29.33669
        4.991984           63.28269           28.66072
        5.011623           63.16570           28.00046
        5.031262           63.00925           27.36055
        5.050902           62.81870           26.74430
        5.070540           62.59940           26.15309
        5.090180           62.35758           25.58771
        5.109819           62.09779           25.04782
        5.129459           61.82314           24.53194
        5.149097           61.53874           24.03821
        5.168737           61.24661           23.56455
        5.188376           60.94804           23.10806
        5.208016           60.64437           22.66656
        5.227655           60.33544           22.23791
        5.247294           60.02136           21.81993
        5.266933           59.70037           21.41171
        5.286572           59.37116           21.01247
        5.306212           59.03403           20.62232
        5.325851           58.68636           20.24154
        5.345490           58.32816           19.87125
        5.365130           57.95787           19.51266
        5.384769           57.57676           19.16775
        5.404408           57.18309           18.83790
        5.424047           56.78002           18.52490
        5.443686           56.36699           18.23040
        5.463326           55.94611           17.95574
        5.482965           55.51947           17.70210
        5.502604           55.08889           17.47003
        5.522244           54.65653           17.26008
        5.541883           54.22443           17.07236
        5.561522           53.79474           16.90683
        5.581162           53.36998           16.76276
        5.600801           52.95150           16.63940
        5.620441           52.54194           16.53592
        5.640079           52.14302           16.45087
        5.659719           51.75529           16.38260
        5.679358           51.38155           16.32953
        5.698998           51.02254           16.28989
        5.718637           50.67831           16.26145
        5.738276           50.35003           16.24212
        5.757915           50.03767           16.22997
        5.777555           49.74110           16.22284
        5.797194           49.45959           16.21877
        5.816833           49.19316           16.21627
        5.836472           48.94021           16.21328
        5.856112           48.70035           16.20871
        5.875751           48.47176           16.20156
        5.895390           48.25398           16.19076
        5.915029           48.04528           16.17575
        5.934669           47.84497           16.15597
        5.954309           47.65087           16.13126
        5.973947           47.46328           16.10112
        5.993586           47.28011           16.06550
        6.013227           47.10177           16.02441
        6.032866           46.92620           15.97754
        6.052504           46.75299           15.92489
        6.072144           46.58116           15.86664
        6.091784           46.41032           15.80256
        6.111422           46.23839           15.73295
        6.131061           46.06541           15.65796
        6.150701           45.89042           15.57782
        6.170340           45.71203           15.49296
        6.189980           45.52905           15.40374
        6.209619           45.34153           15.31120
        6.229258           45.14787           15.21582
        6.248898           44.94754           15.11847
        6.268536           44.73982           15.02039
        6.288176           44.52372           14.92228
        6.307815           44.29961           14.82585
        6.327455           44.06674           14.73229
        6.347094           43.82479           14.64293
        6.366733           43.57406           14.55944
        6.386372           43.31464           14.48329
        6.406012           43.04731           14.41607
        6.425651           42.77252           14.35938
        6.445290           42.49161           14.31422
        6.464930           42.20573           14.28259
        6.484568           41.91676           14.26522
        6.504208           41.62555           14.26307
        6.523847           41.33495           14.27683
        6.543486           41.04624           14.30666
        6.563126           40.76160           14.35291
