#                                                                     
#  ____  ____     _       ____    ____  ______      ___               
# |_  _||_  _|   / \     |_   \  /   _||_   _ \   ."   `.             
#   \ \  / /    / _ \      |   \/   |    | |_) | /  .-.  \            
#    \ \/ /    / ___ \     | |\  /| |    |  __". | |   | |            
#    _|  |_  _/ /   \ \_  _| |_\/_| |_  _| |__) |\  `-"  /            
#   |______||____| |____||_____||_____||_______/  `.___."             
#                                                                     
#                                                                     
#                                                                     
# Version 5.2.0 Revision 22885 Hash (prev commit) 41fc9d87d4          
#                 Branch is phys-dichroism                            
#          MPI+OpenMP+SLK+SLEPC+HDF5_MPI_IO Build                     
#                http://www.yambo-code.org                            
#
# Joint Density of states @ Q(1):   0.00000000     0.999999975E-5   0.00000000    [q->0 direction]
#
# [GEN] GF Energies                               : Perdew, Burke & Ernzerhof(X)+Perdew, Burke & Ernzerhof(C)
# [GEN] Green`s Function                          : Retarded
#
# [GEN] Gauge                                     : Length
# [GEN] [r,Vnl] included                          : yes
#
# DIP band range                                  :   5  10
# DIP band range limits                           :  10   5
# DIP e/h energy range                            :  -1.00000000     -1.00000000    [eV]
# RL vectors in the sum                           :   603
# [r,Vnl] included                                : yes
# Bands ordered                                   : no
# Direct v evaluation                             : no
# Approach used                                   : G-space v
# Dipoles computed                                : R V P Spin
# Wavefunctions                                   : Perdew, Burke & Ernzerhof(X)+Perdew, Burke & Ernzerhof(C)
#
#
# [K] Identifier                                  :   4572
# [K] Dimension                                   :   634
# [K] Bands                                       :   5  10
# [K] Exchange res                                : yes
# [K] Correlation res                             : no
# [K] Kernel`s coupling                           : no
# [K] Exchange cpl                                : no
# [K] Correlation cpl                             : no
# [K] W interaction is bare                       : no
# [K] ALDA kernel in R-space                      : yes
# [K] RL vectors exchange                         :  1157
# [K] E/h energy range                            :  -1.00000000     -1.00000000    [eV]
# [K] Coupling range                              :   100.000000      100.000000    [o/o]
# [X] Response Kind                               : BAR
#
#
#    E[1] [eV]          Im(jdos)           Re(jdos)           Im(jdos_o)         Re(jdos_o)
#
       -2.000000          -46.49834           13.91417          -46.24128           17.82602
       -1.996000          -46.17687           14.44490          -45.69984           18.39369
       -1.992000          -45.84063           14.94324          -45.13692           18.91265
       -1.988000          -45.49301           15.41050          -44.55749           19.38306
       -1.984000          -45.13704           15.84821          -43.96579           19.80532
       -1.980000          -44.77516           16.25818          -43.36634           20.18044
       -1.976000          -44.40942           16.64246          -42.76329           20.50981
       -1.972000          -44.04120           17.00312          -42.15979           20.79515
       -1.968000          -43.67151           17.34215          -41.55952           21.03830
       -1.964000          -43.30077           17.66154          -40.96534           21.24165
       -1.960000          -42.92939           17.96303          -40.37961           21.40739
       -1.956000          -42.55721           18.24824          -39.80461           21.53816
       -1.952000          -42.18359           18.51835          -39.24195           21.63647
       -1.948000          -41.80801           18.77437          -38.69320           21.70500
       -1.944000          -41.42974           19.01694          -38.15897           21.74620
       -1.940000          -41.04792           19.24631          -37.63994           21.76266
       -1.936000          -40.66170           19.46249          -37.13633           21.75678
       -1.932000          -40.27031           19.66519          -36.64790           21.73052
       -1.928000          -39.87319           19.85387          -36.17457           21.68599
       -1.924000          -39.46978           20.02759          -35.71524           21.62455
       -1.920000          -39.05988           20.18550          -35.26957           21.54769
       -1.916000          -38.64328           20.32634          -34.83628           21.45625
       -1.912000          -38.22028           20.44891          -34.41456           21.35070
       -1.908000          -37.79115           20.55184          -34.00367           21.23146
       -1.904000          -37.35669           20.63377          -33.60291           21.09828
       -1.900000          -36.91770           20.69338          -33.21155           20.95082
       -1.896000          -36.47535           20.72935          -32.82961           20.78854
       -1.892000          -36.03110           20.74042          -32.45694           20.61059
       -1.888000          -35.58655           20.72556          -32.09404           20.41630
       -1.884000          -35.14352           20.68383          -31.74148           20.20479
       -1.880000          -34.70409           20.61444          -31.40038           19.97552
       -1.876000          -34.27043           20.51702          -31.07198           19.72771
       -1.872000          -33.84484           20.39112          -30.75769           19.46111
       -1.868000          -33.42971           20.23686          -30.45945           19.17586
       -1.864000          -33.02754           20.05451          -30.17872           18.87176
       -1.860000          -32.64074           19.84460          -29.91771           18.54950
       -1.856000          -32.27178           19.60798          -29.67802           18.20981
       -1.852000          -31.92289           19.34573          -29.46161           17.85363
       -1.848000          -31.59653           19.05924          -29.27012           17.48236
       -1.844000          -31.29450           18.75003          -29.10527           17.09739
       -1.840000          -31.01904           18.41997          -28.96842           16.70047
       -1.836000          -30.77171           18.07101          -28.86086           16.29338
       -1.832000          -30.55420           17.70523          -28.78379           15.87820
       -1.828000          -30.36786           17.32491          -28.73825           15.45695
       -1.824000          -30.21377           16.93241          -28.72471           15.03190
       -1.820000          -30.09287           16.53015          -28.74377           14.60527
       -1.816000          -30.00601           16.12057          -28.79593           14.17937
       -1.812000          -29.95362           15.70620          -28.88136           13.75651
       -1.808000          -29.93610           15.28960          -28.99999           13.33908
       -1.804000          -29.95348           14.87322          -29.15164           12.92943
       -1.800000          -30.00579           14.45961          -29.33595           12.52992
       -1.796000          -30.09291           14.05126          -29.55248           12.14286
       -1.792000          -30.21422           13.65064          -29.80025           11.77060
       -1.788000          -30.36926           13.26011          -30.07881           11.41532
       -1.784000          -30.55733           12.88202          -30.38682           11.07925
       -1.780000          -30.77752           12.51868          -30.72301           10.76454
       -1.776000          -31.02879           12.17224          -31.08622           10.47320
       -1.772000          -31.30995           11.84483          -31.47462           10.20723
       -1.768000          -31.61974           11.53853          -31.88673           9.968447
       -1.764000          -31.95680           11.25522          -32.32086           9.758578
       -1.760000          -32.31961           10.99673          -32.77475           9.579156
       -1.756000          -32.70635           10.76485          -33.24639           9.431750
       -1.752000          -33.11557           10.56115          -33.73369           9.317489
       -1.748000          -33.54541           10.38719          -34.23432           9.237579
       -1.744000          -33.99393           10.24442          -34.74603           9.192986
       -1.740000          -34.45935           10.13415          -35.26647           9.184474
       -1.736000          -34.93957           10.05769          -35.79311           9.212616
       -1.732000          -35.43255           10.01617          -36.32354           9.277997
       -1.728000          -35.93621           10.01079          -36.85531           9.380908
       -1.724000          -36.44827           10.04258          -37.38597           9.521532
       -1.720000          -36.96642           10.11254          -37.91296           9.699952
       -1.716000          -37.48822           10.22161          -38.43382           9.916101
       -1.712000          -38.01101           10.37061          -38.94600           10.16978
       -1.708000          -38.53206           10.56032          -39.44704           10.46074
       -1.704000          -39.04841           10.79136          -39.93413           10.78848
       -1.700000          -39.55682           11.06411          -40.40462           11.15236
       -1.696000          -40.05392           11.37877          -40.85564           11.55159
       -1.692000          -40.53626           11.73524          -41.28457           11.98512
       -1.688000          -40.99992           12.13315          -41.68866           12.45161
       -1.684000          -41.44110           12.57155          -42.06465           12.94946
       -1.680000          -41.85567           13.04918          -42.41028           13.47676
       -1.676000          -42.23985           13.56423          -42.72225           14.03116
       -1.672000          -42.58948           14.11431          -42.99825           14.60999
       -1.668000          -42.90083           14.69643          -43.23584           15.21013
       -1.664000          -43.17051           15.30704          -43.43273           15.82805
       -1.660000          -43.39507           15.94207          -43.58761           16.45989
       -1.656000          -43.57193           16.59679          -43.69881           17.10143
       -1.652000          -43.69925           17.26620          -43.76613           17.74815
       -1.648000          -43.77572           17.94479          -43.78947           18.39555
       -1.644000          -43.80082           18.62696          -43.76944           19.03889
       -1.640000          -43.77510           19.30698          -43.70760           19.67374
       -1.636000          -43.69954           19.97935          -43.60638           20.29603
       -1.632000          -43.57644           20.63880          -43.46840           20.90197
       -1.628000          -43.40879           21.28051          -43.29701           21.48847
       -1.624000          -43.20012           21.90031          -43.09671           22.05310
       -1.620000          -42.95434           22.49483          -42.87098           22.59450
       -1.616000          -42.67626           23.06152          -42.62438           23.11186
       -1.612000          -42.37047           23.59863          -42.36077           23.60530
       -1.608000          -42.04164           24.10553          -42.08397           24.07578
       -1.604000          -41.69405           24.58217          -41.79738           24.52514
       -1.600000          -41.33185           25.02940          -41.50337           24.95547
       -1.596000          -40.95856           25.44868          -41.20410           25.36959
       -1.592000          -40.57706           25.84199          -40.90067           25.77037
       -1.588000          -40.18961           26.21159          -40.59309           26.16058
       -1.584000          -39.79772           26.55993          -40.28106           26.54323
       -1.580000          -39.40208           26.88939          -39.96292           26.92073
       -1.576000          -39.00277           27.20215          -39.63684           27.29493
       -1.572000          -38.59947           27.50016          -39.30033           27.66715
       -1.568000          -38.19115           27.78480          -38.95038           28.03778
       -1.564000          -37.77659           28.05692          -38.58408           28.40655
       -1.560000          -37.35442           28.31690          -38.19836           28.77230
       -1.556000          -36.92322           28.56440          -37.79044           29.13289
       -1.552000          -36.48183           28.79869          -37.35818           29.48559
       -1.548000          -36.02927           29.01843          -36.89972           29.82710
       -1.544000          -35.56486           29.22200          -36.41426           30.15359
       -1.540000          -35.08876           29.40748          -35.90170           30.46078
       -1.536000          -34.60118           29.57290          -35.36244           30.74483
       -1.532000          -34.10307           29.71630          -34.79840           31.00147
       -1.528000          -33.59583           29.83585          -34.21175           31.22692
       -1.524000          -33.08106           29.92997          -33.60524           31.41824
       -1.520000          -32.56111           29.99738          -32.98268           31.57236
       -1.516000          -32.03798           30.03731          -32.34761           31.68734
       -1.512000          -31.51433           30.04919          -31.70443           31.76176
       -1.508000          -30.99234           30.03308          -31.05727           31.79490
       -1.504000          -30.47444           29.98913          -30.41011           31.78668
       -1.500000          -29.96295           29.91805          -29.76708           31.73768
       -1.496000          -29.45979           29.82071          -29.13199           31.64887
       -1.492000          -28.96689           29.69825          -28.50827           31.52171
       -1.488000          -28.48583           29.55187          -27.89884           31.35811
       -1.484000          -28.01801           29.38301          -27.30664           31.16018
       -1.480000          -27.56461           29.19307          -26.73396           30.93024
       -1.476000          -27.12657           28.98356          -26.18263           30.67058
       -1.472000          -26.70478           28.75585          -25.65430           30.38386
       -1.468000          -26.29974           28.51154          -25.15020           30.07242
       -1.464000          -25.91210           28.25198          -24.67139           29.73891
       -1.460000          -25.54196           27.97861          -24.21837           29.38564
       -1.456000          -25.18987           27.69278          -23.79172           29.01492
       -1.452000          -24.85578           27.39582          -23.39152           28.62910
       -1.448000          -24.53961           27.08909          -23.01792           28.23012
       -1.444000          -24.24146           26.77376          -22.67078           27.82018
       -1.440000          -23.96097           26.45106          -22.34975           27.40107
       -1.436000          -23.69786           26.12205          -22.05456           26.97470
       -1.432000          -23.45182           25.78780          -21.78475           26.54254
       -1.428000          -23.22236           25.44916          -21.53972           26.10644
       -1.424000          -23.00893           25.10699          -21.31889           25.66782
       -1.420000          -22.81102           24.76211          -21.12144           25.22801
       -1.416000          -22.62807           24.41500          -20.94669           24.78838
       -1.412000          -22.45933           24.06630          -20.79370           24.35017
       -1.408000          -22.30435           23.71631          -20.66154           23.91449
       -1.404000          -22.16260           23.36541          -20.54927           23.48257
       -1.400000          -22.03337           23.01387          -20.45575           23.05521
       -1.396000          -21.91627           22.66190          -20.37983           22.63332
       -1.392000          -21.81085           22.30954          -20.32019           22.21759
       -1.388000          -21.71675           21.95696          -20.27569           21.80872
       -1.384000          -21.63350           21.60424          -20.24477           21.40716
       -1.380000          -21.56066           21.25139          -20.22608           21.01315
       -1.376000          -21.49800           20.89844          -20.21822           20.62677
       -1.372000          -21.44525           20.54541          -20.21961           20.24797
       -1.368000          -21.40205           20.19228          -20.22887           19.87644
       -1.364000          -21.36800           19.83902          -20.24457           19.51154
       -1.360000          -21.34293           19.48545          -20.26543           19.15259
       -1.356000          -21.32646           19.13154          -20.29031           18.79856
       -1.352000          -21.31844           18.77705          -20.31817           18.44834
       -1.348000          -21.31860           18.42178          -20.34836           18.10052
       -1.344000          -21.32680           18.06544          -20.38020           17.75370
       -1.340000          -21.34281           17.70779          -20.41346           17.40632
       -1.336000          -21.36659           17.34837          -20.44828           17.05672
       -1.332000          -21.39818           16.98692          -20.48489           16.70341
       -1.328000          -21.43756           16.62300          -20.52391           16.34492
       -1.324000          -21.48490           16.25620          -20.56613           15.97978
       -1.320000          -21.54027           15.88614          -20.61262           15.60684
       -1.316000          -21.60382           15.51240          -20.66458           15.22498
       -1.312000          -21.67607           15.13454          -20.72332           14.83336
       -1.308000          -21.75720           14.75214          -20.79046           14.43137
       -1.304000          -21.84754           14.36476          -20.86744           14.01850
       -1.300000          -21.94774           13.97196          -20.95581           13.59455
       -1.296000          -22.05820           13.57332          -21.05724           13.15944
       -1.292000          -22.17976           13.16839          -21.17331           12.71334
       -1.288000          -22.31302           12.75679          -21.30540           12.25641
       -1.284000          -22.45887           12.33817          -21.45506           11.78916
       -1.280000          -22.61827           11.91212          -21.62363           11.31202
       -1.276000          -22.79224           11.47846          -21.81258           10.82562
