#                                                                     
#  ____  ____     _       ____    ____  ______      ___               
# |_  _||_  _|   / \     |_   \  /   _||_   _ \   ."   `.             
#   \ \  / /    / _ \      |   \/   |    | |_) | /  .-.  \            
#    \ \/ /    / ___ \     | |\  /| |    |  __". | |   | |            
#    _|  |_  _/ /   \ \_  _| |_\/_| |_  _| |__) |\  `-"  /            
#   |______||____| |____||_____||_____||_______/  `.___."             
#                                                                     
#                                                                     
#                                                                     
# Version 5.2.0 Revision 22885 Hash (prev commit) 41fc9d87d4          
#                 Branch is phys-dichroism                            
#          MPI+OpenMP+SLK+SLEPC+HDF5_MPI_IO Build                     
#                http://www.yambo-code.org                            
#
# Absorption @ Q(1):   0.00000000     0.999999975E-5   0.00000000    [q->0 direction]
#
# [GEN] GF Energies                               : Perdew, Burke & Ernzerhof(X)+Perdew, Burke & Ernzerhof(C)
# [GEN] Green`s Function                          : Retarded
#
# [GEN] Gauge                                     : Length
# [GEN] [r,Vnl] included                          : yes
#
# DIP band range                                  :   5  10
# DIP band range limits                           :  10   5
# DIP e/h energy range                            :  -1.00000000     -1.00000000    [eV]
# RL vectors in the sum                           :   603
# [r,Vnl] included                                : yes
# Bands ordered                                   : no
# Direct v evaluation                             : no
# Approach used                                   : G-space v
# Dipoles computed                                : R V P Spin
# Wavefunctions                                   : Perdew, Burke & Ernzerhof(X)+Perdew, Burke & Ernzerhof(C)
#
#
# [K] Identifier                                  :   4572
# [K] Dimension                                   :   634
# [K] Bands                                       :   5  10
# [K] Exchange res                                : yes
# [K] Correlation res                             : no
# [K] Kernel`s coupling                           : no
# [K] Exchange cpl                                : no
# [K] Correlation cpl                             : no
# [K] W interaction is bare                       : no
# [K] ALDA kernel in R-space                      : yes
# [K] RL vectors exchange                         :  1157
# [K] E/h energy range                            :  -1.00000000     -1.00000000    [eV]
# [K] Coupling range                              :   100.000000      100.000000    [o/o]
# [X] Response Kind                               : BAR
#
# Diamagnetic term                                
# Ao                                              :  -7.12372255    [nel]
# A                                               :   0.00000000    [nel]
#
#    E[1] [eV]          Im(eps)            Re(eps)            Im(eps_o)          Re(eps_o)
#
       -2.000000          -21.41999          -10.76904          -21.40700          -10.38016
       -1.996000          -20.96685          -10.42744          -20.94618          -10.04648
       -1.992000          -20.49856          -10.12954          -20.47142          -9.756787
       -1.988000          -20.01962          -9.875157          -19.98708          -9.510731
       -1.984000          -19.53432          -9.663610          -19.49750          -9.307482
       -1.980000          -19.04663          -9.493723          -19.00645          -9.145796
       -1.976000          -18.56012          -9.363958          -18.51757          -9.023961
       -1.972000          -18.07804          -9.272460          -18.03388          -8.940109
       -1.968000          -17.60320          -9.217180          -17.55815          -8.892112
       -1.964000          -17.13800          -9.195859          -17.09269          -8.877648
       -1.960000          -16.68447          -9.206207          -16.63942          -8.894445
       -1.956000          -16.24426          -9.245836          -16.19993          -8.940060
       -1.952000          -15.81868          -9.312465          -15.77551          -9.012216
       -1.948000          -15.40880          -9.403780          -15.36704          -9.108633
       -1.944000          -15.01534          -9.517612          -14.97523          -9.227160
       -1.940000          -14.63880          -9.651826          -14.60058          -9.365644
       -1.936000          -14.27952          -9.804469          -14.24336          -9.522182
       -1.932000          -13.93762          -9.973717          -13.90357          -9.694905
       -1.928000          -13.61309          -10.15782          -13.58130          -9.882215
       -1.924000          -13.30583          -10.35523          -13.27633          -10.08249
       -1.920000          -13.01561          -10.56450          -12.98844          -10.29439
       -1.916000          -12.74212          -10.78433          -12.71731          -10.51649
       -1.912000          -12.48508          -11.01350          -12.46262          -10.74776
       -1.908000          -12.24404          -11.25096          -12.22396          -10.98704
       -1.904000          -12.01862          -11.49570          -12.00091          -11.23347
       -1.900000          -11.80840          -11.74692          -11.79304          -11.48618
       -1.896000          -11.61293          -12.00381          -11.59991          -11.74437
       -1.892000          -11.43182          -12.26565          -11.42112          -12.00737
       -1.888000          -11.26462          -12.53186          -11.25623          -12.27461
       -1.884000          -11.11092          -12.80188          -11.10482          -12.54557
       -1.880000          -10.97035          -13.07523          -10.96653          -12.81970
       -1.876000          -10.84251          -13.35146          -10.84100          -13.09667
       -1.872000          -10.72708          -13.63025          -10.72786          -13.37607
       -1.868000          -10.62372          -13.91119          -10.62679          -13.65749
       -1.864000          -10.53214          -14.19404          -10.53754          -13.94080
       -1.860000          -10.45206          -14.47847          -10.45982          -14.22562
       -1.856000          -10.38326          -14.76429          -10.39338          -14.51172
       -1.852000          -10.32550          -15.05129          -10.33801          -14.79892
       -1.848000          -10.27859          -15.33922          -10.29354          -15.08704
       -1.844000          -10.24239          -15.62797          -10.25983          -15.37586
       -1.840000          -10.21677          -15.91734          -10.23675          -15.66530
       -1.836000          -10.20162          -16.20715          -10.22421          -15.95507
       -1.832000          -10.19688          -16.49730          -10.22215          -16.24512
       -1.828000          -10.20249          -16.78761          -10.23053          -16.53526
       -1.824000          -10.21845          -17.07789          -10.24935          -16.82527
       -1.820000          -10.24477          -17.36805          -10.27863          -17.11509
       -1.816000          -10.28148          -17.65790          -10.31842          -17.40452
       -1.812000          -10.32867          -17.94722          -10.36878          -17.69336
       -1.808000          -10.38643          -18.23588          -10.42986          -17.98137
       -1.804000          -10.45487          -18.52363          -10.50175          -18.26838
       -1.800000          -10.53415          -18.81024          -10.58463          -18.55413
       -1.796000          -10.62443          -19.09543          -10.67863          -18.83832
       -1.792000          -10.72591          -19.37894          -10.78401          -19.12063
       -1.788000          -10.83879          -19.66043          -10.90098          -19.40071
       -1.784000          -10.96333          -19.93949          -11.02976          -19.67818
       -1.780000          -11.09976          -20.21571          -11.17059          -19.95260
       -1.776000          -11.24836          -20.48863          -11.32379          -20.22349
       -1.772000          -11.40938          -20.75772          -11.48962          -20.49021
       -1.768000          -11.58311          -21.02233          -11.66830          -20.75215
       -1.764000          -11.76982          -21.28184          -11.86017          -21.00866
       -1.760000          -11.96978          -21.53549          -12.06543          -21.25886
       -1.756000          -12.18322          -21.78239          -12.28435          -21.50191
       -1.752000          -12.41037          -22.02165          -12.51714          -21.73684
       -1.748000          -12.65142          -22.25223          -12.76393          -21.96257
       -1.744000          -12.90643          -22.47300          -13.02479          -22.17794
       -1.740000          -13.17550          -22.68268          -13.29977          -22.38159
       -1.736000          -13.45857          -22.87993          -13.58873          -22.57207
       -1.732000          -13.75547          -23.06332          -13.89150          -22.74795
       -1.728000          -14.06590          -23.23123          -14.20767          -22.90759
       -1.724000          -14.38940          -23.38198          -14.53672          -23.04928
       -1.720000          -14.72526          -23.51379          -14.87785          -23.17107
       -1.716000          -15.07263          -23.62483          -15.23006          -23.27117
       -1.712000          -15.43032          -23.71313          -15.59205          -23.34767
       -1.708000          -15.79690          -23.77683          -15.96231          -23.39854
       -1.704000          -16.17061          -23.81403          -16.33883          -23.42203
       -1.700000          -16.54930          -23.82279          -16.71936          -23.41617
       -1.696000          -16.93049          -23.80149          -17.10122          -23.37947
       -1.692000          -17.31132          -23.74856          -17.48139          -23.31036
       -1.688000          -17.68857          -23.66282          -17.85646          -23.20777
       -1.684000          -18.05863          -23.54332          -18.22271          -23.07111
       -1.680000          -18.41759          -23.38961          -18.57607          -22.90006
       -1.676000          -18.76128          -23.20185          -18.91223          -22.69491
       -1.672000          -19.08538          -22.98071          -19.22683          -22.45674
       -1.668000          -19.38545          -22.72751          -19.51544          -22.18706
       -1.664000          -19.65713          -22.44433          -19.77368          -21.88844
       -1.660000          -19.89626          -22.13398          -19.99749          -21.56394
       -1.656000          -20.09900          -21.79999          -20.18327          -21.21731
       -1.652000          -20.26200          -21.44648          -20.32786          -20.85310
       -1.648000          -20.38251          -21.07825          -20.42881          -20.47618
       -1.644000          -20.45859          -20.70049          -20.48451          -20.09206
       -1.640000          -20.48903          -20.31870          -20.49412          -19.70633
       -1.636000          -20.47362          -19.93851          -20.45782          -19.32453
       -1.632000          -20.41294          -19.56553          -20.37658          -18.95240
       -1.628000          -20.30848          -19.20513          -20.25227          -18.59507
       -1.624000          -20.16256          -18.86231          -20.08752          -18.25744
       -1.620000          -19.97812          -18.54157          -19.88556          -17.94373
       -1.616000          -19.75868          -18.24681          -19.65016          -17.65755
       -1.612000          -19.50823          -17.98114          -19.38531          -17.40176
       -1.608000          -19.23098          -17.74708          -19.09549          -17.17849
       -1.604000          -18.93121          -17.54630          -18.78497          -16.98922
       -1.600000          -18.61328          -17.37985          -18.45806          -16.83466
       -1.596000          -18.28138          -17.24813          -18.11890          -16.71497
       -1.592000          -17.93943          -17.15099          -17.77132          -16.62976
       -1.588000          -17.59114          -17.08774          -17.41891          -16.57809
       -1.584000          -17.23982          -17.05735          -17.06482          -16.55882
       -1.580000          -16.88845          -17.05841          -16.71188          -16.57048
       -1.576000          -16.53955          -17.08936          -16.36244          -16.61136
       -1.572000          -16.19535          -17.14849          -16.01864          -16.67963
       -1.568000          -15.85767          -17.23389          -15.68212          -16.77344
       -1.564000          -15.52802          -17.34373          -15.35424          -16.89091
       -1.560000          -15.20758          -17.47612          -15.03607          -17.03016
       -1.556000          -14.89727          -17.62934          -14.72839          -17.18951
       -1.552000          -14.59780          -17.80164          -14.43191          -17.36716
       -1.548000          -14.30963          -17.99140          -14.14688          -17.56152
       -1.544000          -14.03309          -18.19702          -13.87366          -17.77116
       -1.540000          -13.76837          -18.41713          -13.61234          -17.99464
       -1.536000          -13.51550          -18.65041          -13.36288          -18.23069
       -1.532000          -13.27448          -18.89572          -13.12527          -18.47824
       -1.528000          -13.04518          -19.15186          -12.89933          -18.73611
       -1.524000          -12.82745          -19.41791          -12.68489          -19.00345
       -1.520000          -12.62112          -19.69290          -12.48173          -19.27931
       -1.516000          -12.42591          -19.97605          -12.28958          -19.56296
       -1.512000          -12.24156          -20.26661          -12.10818          -19.85359
       -1.508000          -12.06781          -20.56383          -11.93723          -20.15059
       -1.504000          -11.90436          -20.86717          -11.77645          -20.45346
       -1.500000          -11.75091          -21.17601          -11.62548          -20.76148
       -1.496000          -11.60714          -21.48989          -11.48408          -21.07437
       -1.492000          -11.47275          -21.80835          -11.35190          -21.39161
       -1.488000          -11.34743          -22.13095          -11.22864          -21.71276
       -1.484000          -11.23087          -22.45734          -11.11399          -22.03759
       -1.480000          -11.12276          -22.78722          -11.00763          -22.36565
       -1.476000          -11.02280          -23.12026          -10.90929          -22.69675
       -1.472000          -10.93070          -23.45621          -10.81868          -23.03063
       -1.468000          -10.84617          -23.79488          -10.73552          -23.36707
       -1.464000          -10.76894          -24.13603          -10.65948          -23.70597
       -1.460000          -10.69872          -24.47950          -10.59038          -24.04702
       -1.456000          -10.63527          -24.82516          -10.52789          -24.39018
       -1.452000          -10.57834          -25.17285          -10.47182          -24.73534
       -1.448000          -10.52769          -25.52254          -10.42194          -25.08227
       -1.444000          -10.48308          -25.87404          -10.37798          -25.43102
       -1.440000          -10.44431          -26.22735          -10.33975          -25.78152
       -1.436000          -10.41117          -26.58243          -10.30706          -26.13362
       -1.432000          -10.38346          -26.93914          -10.27969          -26.48739
       -1.428000          -10.36100          -27.29754          -10.25750          -26.84274
       -1.424000          -10.34362          -27.65759          -10.24027          -27.19967
       -1.420000          -10.33114          -28.01925          -10.22789          -27.55816
       -1.416000          -10.32340          -28.38251          -10.22017          -27.91826
       -1.412000          -10.32027          -28.74742          -10.21697          -28.27991
       -1.408000          -10.32160          -29.11398          -10.21815          -28.64310
       -1.404000          -10.32727          -29.48222          -10.22360          -29.00794
       -1.400000          -10.33715          -29.85215          -10.23318          -29.37452
       -1.396000          -10.35112          -30.22376          -10.24679          -29.74260
       -1.392000          -10.36907          -30.59712          -10.26432          -30.11239
       -1.388000          -10.39091          -30.97235          -10.28566          -30.48406
       -1.384000          -10.41652          -31.34937          -10.31072          -30.85746
       -1.380000          -10.44585          -31.72825          -10.33941          -31.23267
       -1.376000          -10.47877          -32.10917          -10.37166          -31.60980
       -1.372000          -10.51524          -32.49202          -10.40738          -31.98887
       -1.368000          -10.55516          -32.87701          -10.44648          -32.36995
       -1.364000          -10.59849          -33.26411          -10.48893          -32.75327
       -1.360000          -10.64515          -33.65343          -10.53468          -33.13863
       -1.356000          -10.69510          -34.04510          -10.58365          -33.52626
       -1.352000          -10.74830          -34.43914          -10.63579          -33.91626
       -1.348000          -10.80470          -34.83563          -10.69110          -34.30861
       -1.344000          -10.86428          -35.23469          -10.74949          -34.70358
       -1.340000          -10.92702          -35.63638          -10.81100          -35.10107
       -1.336000          -10.99291          -36.04085          -10.87561          -35.50127
       -1.332000          -11.06194          -36.44814          -10.94331          -35.90418
       -1.328000          -11.13409          -36.85831          -11.01407          -36.31004
       -1.324000          -11.20941          -37.27155          -11.08791          -36.71880
       -1.320000          -11.28790          -37.68784          -11.16489          -37.13055
       -1.316000          -11.36957          -38.10741          -11.24500          -37.54557
       -1.312000          -11.45447          -38.53023          -11.32825          -37.96381
       -1.308000          -11.54261          -38.95643          -11.41471          -38.38529
       -1.304000          -11.63406          -39.38607          -11.50440          -38.81026
       -1.300000          -11.72883          -39.81926          -11.59738          -39.23857
       -1.296000          -11.82700          -40.25608          -11.69367          -39.67056
       -1.292000          -11.92858          -40.69657          -11.79333          -40.10612
       -1.288000          -12.03366          -41.14090          -11.89641          -40.54544
       -1.284000          -12.14229          -41.58902          -12.00302          -40.98848
