#                                                           
#                                                           
# Y88b    /   e           e    e      888~~\    ,88~-_      
#  Y88b  /   d8b         d8b  d8b     888   |  d888   \     
#   Y88b/   /Y88b       d888bdY88b    888 _/  88888    |    
#    Y8Y   /  Y88b     / Y88Y Y888b   888  \  88888    |    
#     Y   /____Y88b   /   YY   Y888b  888   |  Y888   /     
#    /   /      Y88b /          Y888b 888__/    `88_-~      
#                                                           
#                                                           
#       Version 4.2.0 Revision 14456 Hash cc1a9b3           
#                  MPI+SLK+OpenMP Build                     
#               http://www.yambo-code.org                   
#
# EELS @ Q(1)  [q->0 direction]:0.1000E-4  0.000     0.000   
#
#
# - Energies      are Teter 93(XC)
# - Wavefunctions are Teter 93(XC)
#
# - The Green`s function is Retarded -
# - Using the Length Gauge -
# - [r,Vnl] *is* included -
#
#   BSK|Identifier              :5728
#      |Dimension               :9
#      |Bands                   :1 - 10
#      |Exchange           [res]: yes
#      |Correlation        [res]: no
#      |Kernel`s coupling       : yes
#      |Exchange           [cpl]: yes
#      |Correlation        [cpl]: no
#      |W interaction is bare   : no
#      |ALDA kernel in R-space  : yes
#      |RL vectors    [exchange]:39127
#      |E/h energy range    [ev]:-1.000000 - -1.000000
#      |Coupling range     [o/o]: 100.0000 -  100.0000
#
#    E/ev[1]      EEL-Im[2]    EEL-Re[3]    EELo-Im[4]   EELo-Re[5]
#
    0.00        0.168E-10    -.991        -0.00        -.984    
   0.2002E-1    0.3448E-6    -.9905       0.9722E-6    -.9840   
   0.4004E-1    0.6895E-6    -.9905       0.1944E-5    -.9840   
   0.6006E-1    0.1034E-5    -.9905       0.2917E-5    -.9840   
   0.8008E-1    0.1379E-5    -.9905       0.3889E-5    -.9840   
   0.1001       0.1724E-5    -.9905       0.4862E-5    -.9840   
   0.1201       0.2069E-5    -.9905       0.5835E-5    -.9840   
   0.1401       0.2414E-5    -.9905       0.6809E-5    -.9840   
   0.1602       0.2759E-5    -.9905       0.7783E-5    -.9840   
   0.1802       0.3105E-5    -.9905       0.8758E-5    -.9840   
   0.2002       0.3450E-5    -.9905       0.9733E-5    -.9840   
   0.2202       0.3796E-5    -.9905       0.1071E-4    -.9840   
   0.2402       0.4142E-5    -.9905       0.1169E-4    -.9840   
   0.2603       0.4487E-5    -.9905       0.1266E-4    -.9840   
   0.2803       0.4834E-5    -.9905       0.1364E-4    -.9840   
   0.3003       0.5180E-5    -.9905       0.1462E-4    -.9840   
   0.3203       0.5527E-5    -.9905       0.1560E-4    -.9840   
   0.3403       0.5873E-5    -.9905       0.1658E-4    -.9840   
   0.3604       0.6221E-5    -.9905       0.1757E-4    -.9840   
   0.3804       0.6568E-5    -.9905       0.1855E-4    -.9840   
   0.4004       0.6916E-5    -.9905       0.1954E-4    -.9840   
   0.4204       0.7264E-5    -.9905       0.2053E-4    -.9840   
   0.4404       0.7612E-5    -.9905       0.2151E-4    -.9840   
   0.4605       0.7961E-5    -.9905       0.2250E-4    -.9840   
   0.4805       0.8310E-5    -.9905       0.2350E-4    -.9840   
   0.5005       0.8659E-5    -.9905       0.2449E-4    -.9840   
   0.5205       0.9009E-5    -.9905       0.2549E-4    -.9840   
   0.5405       0.9359E-5    -.9905       0.2648E-4    -.9840   
   0.5606       0.9709E-5    -.9905       0.2748E-4    -.9840   
   0.5806       0.1006E-4    -.9905       0.2848E-4    -.9840   
   0.6006       0.1041E-4    -.9905       0.2949E-4    -.9840   
   0.6206       0.1076E-4    -.9905       0.3049E-4    -.9839   
   0.6406       0.1112E-4    -.9905       0.3150E-4    -.9839   
   0.6607       0.1147E-4    -.9905       0.3251E-4    -.9839   
   0.6807       0.1182E-4    -.9905       0.3352E-4    -.9839   
   0.7007       0.1218E-4    -.9905       0.3454E-4    -.9839   
   0.7207       0.1253E-4    -.9905       0.3556E-4    -.9839   
   0.7407       0.1289E-4    -.9905       0.3658E-4    -.9839   
   0.7608       0.1324E-4    -.9905       0.3760E-4    -.9839   
   0.7808       0.1360E-4    -.9905       0.3863E-4    -.9839   
   0.8008       0.1395E-4    -.9905       0.3966E-4    -.9839   
   0.8208       0.1431E-4    -.9905       0.4069E-4    -.9839   
   0.8408       0.1467E-4    -.9905       0.4172E-4    -.9839   
   0.8609       0.1503E-4    -.9905       0.4276E-4    -.9839   
   0.8809       0.1539E-4    -.9905       0.4380E-4    -.9839   
   0.9009       0.1575E-4    -.9905       0.4485E-4    -.9838   
   0.9209       0.1611E-4    -.9905       0.4590E-4    -.9838   
   0.9409       0.1647E-4    -.9905       0.4695E-4    -.9838   
   0.9610       0.1683E-4    -.9905       0.4800E-4    -.9838   
   0.9810       0.1720E-4    -.9905       0.4906E-4    -.9838   
    1.001       0.1756E-4    -.9905       0.5013E-4    -.9838   
    1.021       0.1793E-4    -.9904       0.5119E-4    -.9838   
    1.041       0.1829E-4    -.9904       0.5226E-4    -.9838   
    1.061       0.1866E-4    -.9904       0.5334E-4    -.9838   
    1.081       0.1903E-4    -.9904       0.5442E-4    -.9838   
    1.101       0.1939E-4    -.9904       0.5550E-4    -.9837   
    1.121       0.1976E-4    -.9904       0.5659E-4    -.9837   
    1.141       0.2013E-4    -.9904       0.5768E-4    -.9837   
    1.161       0.2050E-4    -.9904       0.5878E-4    -.9837   
    1.181       0.2087E-4    -.9904       0.5988E-4    -.9837   
    1.201       0.2125E-4    -.9904       0.6098E-4    -.9837   
    1.221       0.2162E-4    -.9904       0.6209E-4    -.9837   
    1.241       0.2200E-4    -.9904       0.6321E-4    -.9837   
    1.261       0.2237E-4    -.9904       0.6433E-4    -.9836   
    1.281       0.2275E-4    -.9904       0.6545E-4    -.9836   
    1.301       0.2313E-4    -.9904       0.6658E-4    -.9836   
    1.321       0.2351E-4    -.9904       0.6772E-4    -.9836   
    1.341       0.2389E-4    -.9904       0.6886E-4    -.9836   
    1.361       0.2427E-4    -.9904       0.7001E-4    -.9836   
    1.381       0.2465E-4    -.9904       0.7116E-4    -.9836   
    1.401       0.2503E-4    -.9904       0.7232E-4    -.9836   
    1.421       0.2542E-4    -.9904       0.7348E-4    -.9835   
    1.441       0.2580E-4    -.9904       0.7465E-4    -.9835   
    1.461       0.2619E-4    -.9904       0.7582E-4    -.9835   
    1.481       0.2658E-4    -.9903       0.7701E-4    -.9835   
    1.502       0.2697E-4    -.9903       0.7819E-4    -.9835   
    1.522       0.2736E-4    -.9903       0.7939E-4    -.9835   
    1.542       0.2775E-4    -.9903       0.8059E-4    -.9834   
    1.562       0.2814E-4    -.9903       0.8180E-4    -.9834   
    1.582       0.2854E-4    -.9903       0.8301E-4    -.9834   
    1.602       0.2893E-4    -.9903       0.8423E-4    -.9834   
    1.622       0.2933E-4    -.9903       0.8546E-4    -.9834   
    1.642       0.2973E-4    -.9903       0.8669E-4    -.9834   
    1.662       0.3013E-4    -.9903       0.8794E-4    -.9833   
    1.682       0.3053E-4    -.9903       0.8919E-4    -.9833   
    1.702       0.3094E-4    -.9903       0.9044E-4    -.9833   
    1.722       0.3134E-4    -.9903       0.9171E-4    -.9833   
    1.742       0.3175E-4    -.9903       0.9298E-4    -.9833   
    1.762       0.3216E-4    -.9903       0.9426E-4    -.9833   
    1.782       0.3256E-4    -.9903       0.9555E-4    -.9832   
    1.802       0.3298E-4    -.9903       0.9684E-4    -.9832   
    1.822       0.3339E-4    -.9902       0.9815E-4    -.9832   
    1.842       0.3380E-4    -.9902       0.9946E-4    -.9832   
    1.862       0.3422E-4    -.9902       0.1008E-3    -.9832   
    1.882       0.3464E-4    -.9902       0.1021E-3    -.9831   
    1.902       0.3505E-4    -.9902       0.1035E-3    -.9831   
    1.922       0.3548E-4    -.9902       0.1048E-3    -.9831   
    1.942       0.3590E-4    -.9902       0.1062E-3    -.9831   
    1.962       0.3632E-4    -.9902       0.1075E-3    -.9831   
    1.982       0.3675E-4    -.9902       0.1089E-3    -.9830   
    2.002       0.3718E-4    -.9902       0.1103E-3    -.9830   
    2.022       0.3761E-4    -.9902       0.1117E-3    -.9830   
    2.042       0.3804E-4    -.9902       0.1131E-3    -.9830   
    2.062       0.3847E-4    -.9902       0.1145E-3    -.9829   
    2.082       0.3891E-4    -.9902       0.1159E-3    -.9829   
    2.102       0.3935E-4    -.9901       0.1174E-3    -.9829   
    2.122       0.3979E-4    -.9901       0.1188E-3    -.9829   
    2.142       0.4023E-4    -.9901       0.1203E-3    -.9828   
    2.162       0.4067E-4    -.9901       0.1217E-3    -.9828   
    2.182       0.4112E-4    -.9901       0.1232E-3    -.9828   
    2.202       0.4156E-4    -.9901       0.1247E-3    -.9828   
    2.222       0.4201E-4    -.9901       0.1262E-3    -.9827   
    2.242       0.4247E-4    -.9901       0.1277E-3    -.9827   
    2.262       0.4292E-4    -.9901       0.1292E-3    -.9827   
    2.282       0.4338E-4    -.9901       0.1308E-3    -.9827   
    2.302       0.4384E-4    -.9901       0.1323E-3    -.9826   
    2.322       0.4430E-4    -.9901       0.1339E-3    -.9826   
    2.342       0.4476E-4    -.9900       0.1355E-3    -.9826   
    2.362       0.4522E-4    -.9900       0.1370E-3    -.9826   
    2.382       0.4569E-4    -.9900       0.1387E-3    -.9825   
    2.402       0.4616E-4    -.9900       0.1403E-3    -.9825   
    2.422       0.4664E-4    -.9900       0.1419E-3    -.9825   
    2.442       0.4711E-4    -.9900       0.1435E-3    -.9825   
    2.462       0.4759E-4    -.9900       0.1452E-3    -.9824   
    2.482       0.4807E-4    -.9900       0.1469E-3    -.9824   
    2.503       0.4855E-4    -.9900       0.1485E-3    -.9824   
    2.523       0.4904E-4    -.9900       0.1502E-3    -.9823   
    2.543       0.4952E-4    -.9899       0.1519E-3    -.9823   
    2.563       0.5001E-4    -.9899       0.1537E-3    -.9823   
    2.583       0.5051E-4    -.9899       0.1554E-3    -.9822   
    2.603       0.5100E-4    -.9899       0.1572E-3    -.9822   
    2.623       0.5150E-4    -.9899       0.1590E-3    -.9822   
    2.643       0.5200E-4    -.9899       0.1607E-3    -.9821   
    2.663       0.5251E-4    -.9899       0.1625E-3    -.9821   
    2.683       0.5302E-4    -.9899       0.1644E-3    -.9821   
    2.703       0.5353E-4    -.9899       0.1662E-3    -.9820   
    2.723       0.5404E-4    -.9899       0.1681E-3    -.9820   
    2.743       0.5455E-4    -.9898       0.1699E-3    -.9820   
    2.763       0.5507E-4    -.9898       0.1718E-3    -.9819   
    2.783       0.5560E-4    -.9898       0.1737E-3    -.9819   
    2.803       0.5612E-4    -.9898       0.1757E-3    -.9819   
    2.823       0.5665E-4    -.9898       0.1776E-3    -.9818   
    2.843       0.5718E-4    -.9898       0.1796E-3    -.9818   
    2.863       0.5772E-4    -.9898       0.1816E-3    -.9818   
    2.883       0.5825E-4    -.9898       0.1836E-3    -.9817   
    2.903       0.5879E-4    -.9898       0.1856E-3    -.9817   
    2.923       0.5934E-4    -.9897       0.1877E-3    -.9817   
    2.943       0.5989E-4    -.9897       0.1897E-3    -.9816   
    2.963       0.6044E-4    -.9897       0.1918E-3    -.9816   
    2.983       0.6099E-4    -.9897       0.1939E-3    -.9815   
    3.003       0.6155E-4    -.9897       0.1960E-3    -.9815   
    3.023       0.6211E-4    -.9897       0.1982E-3    -.9815   
    3.043       0.6268E-4    -.9897       0.2004E-3    -.9814   
    3.063       0.6325E-4    -.9897       0.2026E-3    -.9814   
    3.083       0.6382E-4    -.9896       0.2048E-3    -.9813   
    3.103       0.6440E-4    -.9896       0.2070E-3    -.9813   
    3.123       0.6498E-4    -.9896       0.2093E-3    -.9813   
    3.143       0.6556E-4    -.9896       0.2116E-3    -.9812   
    3.163       0.6615E-4    -.9896       0.2139E-3    -.9812   
    3.183       0.6674E-4    -.9896       0.2163E-3    -.9811   
    3.203       0.6734E-4    -.9896       0.2186E-3    -.9811   
    3.223       0.6794E-4    -.9896       0.2210E-3    -.9810   
    3.243       0.6854E-4    -.9895       0.2234E-3    -.9810   
    3.263       0.6915E-4    -.9895       0.2259E-3    -.9810   
    3.283       0.6976E-4    -.9895       0.2284E-3    -.9809   
    3.303       0.7038E-4    -.9895       0.2309E-3    -.9809   
    3.323       0.7100E-4    -.9895       0.2334E-3    -.9808   
    3.343       0.7162E-4    -.9895       0.2360E-3    -.9808   
    3.363       0.7225E-4    -.9895       0.2385E-3    -.9807   
    3.383       0.7289E-4    -.9894       0.2412E-3    -.9807   
    3.403       0.7352E-4    -.9894       0.2438E-3    -.9806   
    3.423       0.7417E-4    -.9894       0.2465E-3    -.9806   
    3.443       0.7482E-4    -.9894       0.2492E-3    -.9805   
    3.463       0.7547E-4    -.9894       0.2520E-3    -.9805   
    3.483       0.7613E-4    -.9894       0.2547E-3    -.9804   
    3.504       0.7679E-4    -.9893       0.2576E-3    -.9804   
    3.524       0.7745E-4    -.9893       0.2604E-3    -.9803   
    3.544       0.7813E-4    -.9893       0.2633E-3    -.9803   
    3.564       0.7880E-4    -.9893       0.2662E-3    -.9802   
    3.584       0.7949E-4    -.9893       0.2691E-3    -.9802   
    3.604       0.8017E-4    -.9893       0.2721E-3    -.9801   
    3.624       0.8086E-4    -.9893       0.2752E-3    -.9801   
    3.644       0.8156E-4    -.9892       0.2782E-3    -.9800   
    3.664       0.8227E-4    -.9892       0.2813E-3    -.9799   
    3.684       0.8297E-4    -.9892       0.2845E-3    -.9799   
    3.704       0.8369E-4    -.9892       0.2876E-3    -.9798   
    3.724       0.8441E-4    -.9892       0.2909E-3    -.9798   
    3.744       0.8513E-4    -.9892       0.2941E-3    -.9797   
    3.764       0.8586E-4    -.9891       0.2974E-3    -.9797   
    3.784       0.8660E-4    -.9891       0.3008E-3    -.9796   
    3.804       0.8734E-4    -.9891       0.3042E-3    -.9795   
    3.824       0.8809E-4    -.9891       0.3076E-3    -.9795   
    3.844       0.8884E-4    -.9891       0.3111E-3    -.9794   
    3.864       0.8961E-4    -.9890       0.3146E-3    -.9794   
    3.884       0.9037E-4    -.9890       0.3182E-3    -.9793   
    3.904       0.9114E-4    -.9890       0.3218E-3    -.9792   
    3.924       0.9192E-4    -.9890       0.3255E-3    -.9792   
    3.944       0.9271E-4    -.9890       0.3293E-3    -.9791   
    3.964       0.9350E-4    -.9890       0.3330E-3    -.9790   
    3.984       0.9430E-4    -.9889       0.3369E-3    -.9790   
    4.004       0.9511E-4    -.9889       0.3407E-3    -.9789   
    4.024       0.9592E-4    -.9889       0.3447E-3    -.9788   
    4.044       0.9674E-4    -.9889       0.3487E-3    -.9788   
    4.064       0.9756E-4    -.9889       0.3527E-3    -.9787   
    4.084       0.9840E-4    -.9888       0.3568E-3    -.9786   
    4.104       0.9924E-4    -.9888       0.3610E-3    -.9785   
    4.124       0.1001E-3    -.9888       0.3652E-3    -.9785   
    4.144       0.1009E-3    -.9888       0.3695E-3    -.9784   
    4.164       0.1018E-3    -.9888       0.3739E-3    -.9783   
    4.184       0.1027E-3    -.9887       0.3783E-3    -.9782   
    4.204       0.1036E-3    -.9887       0.3828E-3    -.9782   
    4.224       0.1044E-3    -.9887       0.3873E-3    -.9781   
    4.244       0.1053E-3    -.9887       0.3920E-3    -.9780   
    4.264       0.1062E-3    -.9887       0.3967E-3    -.9779   
    4.284       0.1071E-3    -.9886       0.4014E-3    -.9779   
    4.304       0.1081E-3    -.9886       0.4063E-3    -.9778   
    4.324       0.1090E-3    -.9886       0.4112E-3    -.9777   
    4.344       0.1099E-3    -.9886       0.4161E-3    -.9776   
    4.364       0.1109E-3    -.9885       0.4212E-3    -.9775   
    4.384       0.1118E-3    -.9885       0.4264E-3    -.9774   
    4.404       0.1128E-3    -.9885       0.4316E-3    -.9774   
    4.424       0.1137E-3    -.9885       0.4369E-3    -.9773   
    4.444       0.1147E-3    -.9885       0.4423E-3    -.9772   
    4.464       0.1157E-3    -.9884       0.4478E-3    -.9771   
    4.484       0.1167E-3    -.9884       0.4533E-3    -.9770   
    4.505       0.1177E-3    -.9884       0.4590E-3    -.9769   
    4.525       0.1187E-3    -.9884       0.4647E-3    -.9768   
    4.545       0.1198E-3    -.9883       0.4706E-3    -.9767   
    4.565       0.1208E-3    -.9883       0.4765E-3    -.9766   
    4.585       0.1218E-3    -.9883       0.4826E-3    -.9765   
    4.605       0.1229E-3    -.9883       0.4887E-3    -.9764   
    4.625       0.1240E-3    -.9882       0.4949E-3    -.9763   
    4.645       0.1250E-3    -.9882       0.5013E-3    -.9762   
    4.665       0.1261E-3    -.9882       0.5078E-3    -.9761   
    4.685       0.1272E-3    -.9882       0.5143E-3    -.9760   
    4.705       0.1283E-3    -.9881       0.5210E-3    -.9759   
    4.725       0.1295E-3    -.9881       0.5278E-3    -.9758   
    4.745       0.1306E-3    -.9881       0.5348E-3    -.9757   
    4.765       0.1317E-3    -.9881       0.5418E-3    -.9756   
    4.785       0.1329E-3    -.9880       0.5490E-3    -.9755   
    4.805       0.1341E-3    -.9880       0.5563E-3    -.9754   
    4.825       0.1352E-3    -.9880       0.5637E-3    -.9753   
    4.845       0.1364E-3    -.9880       0.5713E-3    -.9752   
    4.865       0.1376E-3    -.9879       0.5790E-3    -.9751   
    4.885       0.1389E-3    -.9879       0.5868E-3    -.9749   
    4.905       0.1401E-3    -.9879       0.5948E-3    -.9748   
    4.925       0.1413E-3    -.9878       0.6030E-3    -.9747   
    4.945       0.1426E-3    -.9878       0.6113E-3    -.9746   
    4.965       0.1439E-3    -.9878       0.6197E-3    -.9745   
    4.985       0.1451E-3    -.9878       0.6284E-3    -.9743   
    5.005       0.1464E-3    -.9877       0.6371E-3    -.9742   
    5.025       0.1477E-3    -.9877       0.6461E-3    -.9741   
    5.045       0.1491E-3    -.9877       0.6552E-3    -.9740   
    5.065       0.1504E-3    -.9876       0.6645E-3    -.9738   
    5.085       0.1518E-3    -.9876       0.6740E-3    -.9737   
    5.105       0.1531E-3    -.9876       0.6837E-3    -.9736   
    5.125       0.1545E-3    -.9876       0.6936E-3    -.9734   
    5.145       0.1559E-3    -.9875       0.7037E-3    -.9733   
    5.165       0.1573E-3    -.9875       0.7139E-3    -.9731   
    5.185       0.1588E-3    -.9875       0.7244E-3    -.9730   
    5.205       0.1602E-3    -.9874       0.7351E-3    -.9728   
    5.225       0.1617E-3    -.9874       0.7461E-3    -.9727   
    5.245       0.1632E-3    -.9874       0.7572E-3    -.9725   
    5.265       0.1647E-3    -.9873       0.7686E-3    -.9724   
    5.285       0.1662E-3    -.9873       0.7803E-3    -.9722   
    5.305       0.1677E-3    -.9873       0.7921E-3    -.9721   
    5.325       0.1692E-3    -.9872       0.8043E-3    -.9719   
    5.345       0.1708E-3    -.9872       0.8167E-3    -.9718   
    5.365       0.1724E-3    -.9872       0.8294E-3    -.9716   
    5.385       0.1740E-3    -.9871       0.8423E-3    -.9714   
    5.405       0.1756E-3    -.9871       0.8556E-3    -.9713   
    5.425       0.1773E-3    -.9871       0.8691E-3    -.9711   
    5.445       0.1789E-3    -.9870       0.8830E-3    -.9709   
    5.465       0.1806E-3    -.9870       0.8971E-3    -.9707   
    5.485       0.1823E-3    -.9869       0.9116E-3    -.9706   
    5.506       0.1841E-3    -.9869       0.9264E-3    -.9704   
    5.526       0.1858E-3    -.9869       0.9416E-3    -.9702   
    5.546       0.1876E-3    -.9868       0.9571E-3    -.9700   
    5.566       0.1894E-3    -.9868       0.9730E-3    -.9698   
    5.586       0.1912E-3    -.9868       0.9893E-3    -.9696   
    5.606       0.1930E-3    -.9867       0.1006E-2    -.9694   
    5.626       0.1949E-3    -.9867       0.1023E-2    -.9692   
