#                                                           
#  __  __   ________   ___ __ __    _______   ______        
# /_/\/_/\ /_______/\ /__//_//_/\ /_______/\ /_____/\       
# \ \ \ \ \\::: _  \ \\::\| \| \ \\::: _  \ \\:::_ \ \      
#  \:\_\ \ \\::(_)  \ \\:.      \ \\::(_)  \/_\:\ \ \ \     
#   \::::_\/ \:: __  \ \\:.\-/\  \ \\::  _  \ \\:\ \ \ \    
#     \::\ \  \:.\ \  \ \\. \  \  \ \\::(_)  \ \\:\_\ \ \   
#      \__\/   \__\/\__\/ \__\/ \__\/ \_______\/ \_____\/   
#                                                           
#                                                           
#        Version 4.2.0 Revision 14319 Hash 8432f48          
#                  MPI+SLK+OpenMP Build                     
#                http://www.yambo-code.org                  
#
# Polarizability ( -<<X>> ) [volume @ Q(1) [q->0 direction]0.1000E-4  0.000     0.000   
#
#
# - Energies      are Teter 93(XC)+Scissor
# - Wavefunctions are Teter 93(XC)
#
# - The Green`s function is Retarded -
# - Using the Length Gauge -
# - [r,Vnl] *is* included -
#
#   BSK|Identifier              :2874
#      |Dimension               :199
#      |Bands                   :1 - 200
#      |Exchange           [res]: yes
#      |Correlation        [res]: no
#      |Kernel`s coupling       : no
#      |Exchange           [cpl]: no
#      |Correlation        [cpl]: no
#      |W interaction is bare   : no
#      |ALDA kernel in R-space  : no
#      |RL vectors    [exchange]:9045
#      |E/h energy range    [ev]:-1.000000 - -1.000000
#      |Coupling range     [o/o]: 100.0000 -  100.0000
#
#  E/ev[1]    ALPHA-Im[2]ALPHA-Re[3]ALPHAo-Im[4ALPHAo-Re[5]
#
   0.00000    0.00000    8.05771    0.00000   10.73405
 0.2002E-1  0.7701E-4   8.058     0.1711E-3   10.73   
 0.4004E-1  0.1540E-3   8.058     0.3421E-3   10.73   
 0.6006E-1  0.2310E-3   8.058     0.5132E-3   10.73   
 0.8008E-1  0.3080E-3   8.058     0.6843E-3   10.73   
 0.1001     0.3851E-3   8.058     0.8554E-3   10.73   
 0.1201     0.4621E-3   8.058     0.1026E-2   10.73   
 0.1401     0.5391E-3   8.058     0.1198E-2   10.73   
 0.1602     0.6162E-3   8.058     0.1369E-2   10.74   
 0.1802     0.6932E-3   8.058     0.1540E-2   10.74   
 0.2002     0.7702E-3   8.058     0.1711E-2   10.74   
 0.2202     0.8473E-3   8.059     0.1882E-2   10.74   
 0.2402     0.9244E-3   8.059     0.2054E-2   10.74   
 0.2603     0.1001E-2   8.059     0.2225E-2   10.74   
 0.2803     0.1079E-2   8.059     0.2396E-2   10.74   
 0.3003     0.1156E-2   8.059     0.2568E-2   10.74   
 0.3203     0.1233E-2   8.060     0.2739E-2   10.74   
 0.3403     0.1310E-2   8.060     0.2911E-2   10.74   
 0.3604     0.1387E-2   8.060     0.3082E-2   10.74   
 0.3804     0.1464E-2   8.060     0.3254E-2   10.74   
 0.4004     0.1541E-2   8.061     0.3426E-2   10.74   
 0.4204     0.1619E-2   8.061     0.3597E-2   10.74   
 0.4404     0.1696E-2   8.061     0.3769E-2   10.74   
 0.4605     0.1773E-2   8.062     0.3941E-2   10.74   
 0.4805     0.1850E-2   8.062     0.4113E-2   10.74   
 0.5005     0.1928E-2   8.063     0.4285E-2   10.74   
 0.5205     0.2005E-2   8.063     0.4457E-2   10.75   
 0.5405     0.2082E-2   8.063     0.4629E-2   10.75   
 0.5606     0.2160E-2   8.064     0.4802E-2   10.75   
 0.5806     0.2237E-2   8.064     0.4974E-2   10.75   
 0.6006     0.2315E-2   8.065     0.5147E-2   10.75   
 0.6206     0.2392E-2   8.065     0.5319E-2   10.75   
 0.6406     0.2470E-2   8.066     0.5492E-2   10.75   
 0.6607     0.2547E-2   8.066     0.5665E-2   10.75   
 0.6807     0.2625E-2   8.067     0.5838E-2   10.75   
 0.7007     0.2702E-2   8.067     0.6011E-2   10.76   
 0.7207     0.2780E-2   8.068     0.6184E-2   10.76   
 0.7407     0.2857E-2   8.068     0.6357E-2   10.76   
 0.7608     0.2935E-2   8.069     0.6531E-2   10.76   
 0.7808     0.3013E-2   8.069     0.6704E-2   10.76   
 0.8008     0.3091E-2   8.070     0.6878E-2   10.76   
 0.8208     0.3168E-2   8.071     0.7051E-2   10.76   
 0.8408     0.3246E-2   8.071     0.7225E-2   10.76   
 0.8609     0.3324E-2   8.072     0.7399E-2   10.77   
 0.8809     0.3402E-2   8.073     0.7574E-2   10.77   
 0.9009     0.3480E-2   8.073     0.7748E-2   10.77   
 0.9209     0.3558E-2   8.074     0.7923E-2   10.77   
 0.9409     0.3636E-2   8.075     0.8097E-2   10.77   
 0.9610     0.3714E-2   8.075     0.8272E-2   10.77   
 0.9810     0.3792E-2   8.076     0.8447E-2   10.78   
  1.001     0.3870E-2   8.077     0.8622E-2   10.78   
  1.021     0.3949E-2   8.078     0.8797E-2   10.78   
  1.041     0.4027E-2   8.079     0.8973E-2   10.78   
  1.061     0.4105E-2   8.079     0.9149E-2   10.78   
  1.081     0.4184E-2   8.080     0.9324E-2   10.78   
  1.101     0.4262E-2   8.081     0.9500E-2   10.79   
  1.121     0.4341E-2   8.082     0.9677E-2   10.79   
  1.141     0.4419E-2   8.083     0.9853E-2   10.79   
  1.161     0.4498E-2   8.084     0.1003E-1   10.79   
  1.181     0.4577E-2   8.085     0.1021E-1   10.79   
  1.201     0.4655E-2   8.086     0.1038E-1   10.80   
  1.221     0.4734E-2   8.087     0.1056E-1   10.80   
  1.241     0.4813E-2   8.087     0.1074E-1   10.80   
  1.261     0.4892E-2   8.088     0.1092E-1   10.80   
  1.281     0.4971E-2   8.089     0.1109E-1   10.80   
  1.301     0.5050E-2   8.090     0.1127E-1   10.81   
  1.321     0.5129E-2   8.091     0.1145E-1   10.81   
  1.341     0.5208E-2   8.092     0.1163E-1   10.81   
  1.361     0.5287E-2   8.094     0.1181E-1   10.81   
  1.381     0.5367E-2   8.095     0.1199E-1   10.82   
  1.401     0.5446E-2   8.096     0.1216E-1   10.82   
  1.421     0.5525E-2   8.097     0.1234E-1   10.82   
  1.441     0.5605E-2   8.098     0.1252E-1   10.82   
  1.461     0.5684E-2   8.099     0.1270E-1   10.83   
  1.481     0.5764E-2   8.100     0.1288E-1   10.83   
  1.502     0.5844E-2   8.101     0.1306E-1   10.83   
  1.522     0.5923E-2   8.102     0.1325E-1   10.83   
  1.542     0.6003E-2   8.104     0.1343E-1   10.84   
  1.562     0.6083E-2   8.105     0.1361E-1   10.84   
  1.582     0.6163E-2   8.106     0.1379E-1   10.84   
  1.602     0.6243E-2   8.107     0.1397E-1   10.84   
  1.622     0.6324E-2   8.109     0.1415E-1   10.85   
  1.642     0.6404E-2   8.110     0.1433E-1   10.85   
  1.662     0.6484E-2   8.111     0.1452E-1   10.85   
  1.682     0.6565E-2   8.112     0.1470E-1   10.86   
  1.702     0.6645E-2   8.114     0.1488E-1   10.86   
  1.722     0.6726E-2   8.115     0.1507E-1   10.86   
  1.742     0.6806E-2   8.116     0.1525E-1   10.87   
  1.762     0.6887E-2   8.118     0.1543E-1   10.87   
  1.782     0.6968E-2   8.119     0.1562E-1   10.87   
  1.802     0.7049E-2   8.121     0.1580E-1   10.87   
  1.822     0.7130E-2   8.122     0.1599E-1   10.88   
  1.842     0.7211E-2   8.124     0.1617E-1   10.88   
  1.862     0.7292E-2   8.125     0.1636E-1   10.88   
  1.882     0.7373E-2   8.126     0.1655E-1   10.89   
  1.902     0.7455E-2   8.128     0.1673E-1   10.89   
  1.922     0.7536E-2   8.129     0.1692E-1   10.89   
  1.942     0.7618E-2   8.131     0.1711E-1   10.90   
  1.962     0.7700E-2   8.132     0.1729E-1   10.90   
  1.982     0.7781E-2   8.134     0.1748E-1   10.90   
  2.002     0.7863E-2   8.136     0.1767E-1   10.91   
  2.022     0.7945E-2   8.137     0.1786E-1   10.91   
  2.042     0.8027E-2   8.139     0.1805E-1   10.92   
  2.062     0.8110E-2   8.140     0.1824E-1   10.92   
  2.082     0.8192E-2   8.142     0.1843E-1   10.92   
  2.102     0.8274E-2   8.144     0.1861E-1   10.93   
  2.122     0.8357E-2   8.145     0.1881E-1   10.93   
  2.142     0.8439E-2   8.147     0.1900E-1   10.93   
  2.162     0.8522E-2   8.149     0.1919E-1   10.94   
  2.182     0.8605E-2   8.150     0.1938E-1   10.94   
  2.202     0.8688E-2   8.152     0.1957E-1   10.95   
  2.222     0.8771E-2   8.154     0.1976E-1   10.95   
  2.242     0.8854E-2   8.156     0.1996E-1   10.95   
  2.262     0.8937E-2   8.157     0.2015E-1   10.96   
  2.282     0.9021E-2   8.159     0.2034E-1   10.96   
  2.302     0.9104E-2   8.161     0.2054E-1   10.97   
  2.322     0.9188E-2   8.163     0.2073E-1   10.97   
  2.342     0.9272E-2   8.165     0.2092E-1   10.97   
  2.362     0.9356E-2   8.167     0.2112E-1   10.98   
  2.382     0.9440E-2   8.168     0.2132E-1   10.98   
  2.402     0.9524E-2   8.170     0.2151E-1   10.99   
  2.422     0.9608E-2   8.172     0.2171E-1   10.99   
  2.442     0.9692E-2   8.174     0.2190E-1   11.00   
  2.462     0.9777E-2   8.176     0.2210E-1   11.00   
  2.482     0.9862E-2   8.178     0.2230E-1   11.00   
  2.503     0.9946E-2   8.180     0.2250E-1   11.01   
  2.523     0.1003E-1   8.182     0.2270E-1   11.01   
  2.543     0.1012E-1   8.184     0.2290E-1   11.02   
  2.563     0.1020E-1   8.186     0.2310E-1   11.02   
  2.583     0.1029E-1   8.188     0.2330E-1   11.03   
  2.603     0.1037E-1   8.190     0.2350E-1   11.03   
  2.623     0.1046E-1   8.192     0.2370E-1   11.04   
  2.643     0.1054E-1   8.194     0.2390E-1   11.04   
  2.663     0.1063E-1   8.197     0.2410E-1   11.05   
  2.683     0.1072E-1   8.199     0.2430E-1   11.05   
  2.703     0.1080E-1   8.201     0.2451E-1   11.06   
  2.723     0.1089E-1   8.203     0.2471E-1   11.06   
  2.743     0.1097E-1   8.205     0.2492E-1   11.07   
  2.763     0.1106E-1   8.207     0.2512E-1   11.07   
   2.78278    0.01115    8.20971    0.02533   11.07542
   2.80280    0.01123    8.21186    0.02553   11.08053
   2.82282    0.01132    8.21409    0.02574   11.08557
   2.84284    0.01141    8.21646    0.02594   11.09083
   2.86286    0.01150    8.21876    0.02615   11.09594
   2.88288    0.01158    8.22098    0.02636   11.10121
   2.90290    0.01167    8.22328    0.02657   11.10654
   2.92292    0.01176    8.22565    0.02678   11.11180
   2.94294    0.01185    8.22810    0.02699   11.11736
   2.96296    0.01193    8.23047    0.02720   11.12270
   2.98298    0.01202    8.23284    0.02741   11.12811
   3.00300    0.01211    8.23528    0.02762   11.13367
   3.02302    0.01220    8.23766    0.02783   11.13915
   3.04304    0.01229    8.24010    0.02805   11.14486
   3.06306    0.01238    8.24262    0.02826   11.15042
   3.08308    0.01247    8.24507    0.02847   11.15605
   3.10310    0.01256    8.24759    0.02869   11.16190
   3.12312    0.01265    8.25003    0.02890   11.16754
   3.14314    0.01273    8.25270    0.02912   11.17339
   3.16316    0.01282    8.25522    0.02933   11.17925
   3.18318    0.01291    8.25781    0.02955   11.18518
   3.20320    0.01300    8.26048    0.02977   11.19118
   3.22322    0.01309    8.26293    0.02999   11.19711
   3.24324    0.01319    8.26560    0.03021   11.20311
   3.26326    0.01328    8.26834    0.03043   11.20919
   3.28328    0.01337    8.27101    0.03065   11.21534
   3.30330    0.01346    8.27360    0.03087   11.22142
   3.32332    0.01355    8.27642    0.03109   11.22772
   3.34334    0.01364    8.27901    0.03131   11.23394
   3.36336    0.01373    8.28183    0.03153   11.24017
   3.38338    0.01382    8.28457    0.03176   11.24647
   3.40340    0.01392    8.28738    0.03198   11.25284
   3.42342    0.01401    8.29013    0.03221   11.25929
   3.44344    0.01410    8.29294    0.03243   11.26581
   3.46346    0.01419    8.29569    0.03266   11.27226
   3.48348    0.01429    8.29865    0.03289   11.27893
   3.50350    0.01438    8.30154    0.03312   11.28545
   3.52352    0.01447    8.30436    0.03334   11.29219
   3.54354    0.01456    8.30725    0.03357   11.29886
   3.56356    0.01466    8.31021    0.03380   11.30553
   3.58358    0.01475    8.31310    0.03403   11.31243
   3.60360    0.01485    8.31614    0.03427   11.31924
   3.62362    0.01494    8.31911    0.03450   11.32606
   3.64364    0.01503    8.32200    0.03473   11.33288
   3.66366    0.01513    8.32511    0.03497   11.33992
   3.68368    0.01522    8.32815    0.03520   11.34704
   3.70370    0.01532    8.33126    0.03544   11.35400
   3.72372    0.01541    8.33430    0.03567   11.36112
   3.74374    0.01551    8.33741    0.03591   11.36831
   3.76376    0.01560    8.34045    0.03615   11.37557
   3.78378    0.01570    8.34364    0.03639   11.38283
   3.80380    0.01580    8.34675    0.03663   11.39010
   3.82382    0.01589    8.34994    0.03687   11.39751
   3.84384    0.01599    8.35320    0.03711   11.40477
   3.86386    0.01609    8.35638    0.03735   11.41240
   3.88388    0.01618    8.35964    0.03760   11.41982
   3.90390    0.01628    8.36283    0.03784   11.42737
   3.92392    0.01638    8.36602    0.03809   11.43493
   3.94394    0.01648    8.36943    0.03833   11.44264
   3.96396    0.01657    8.37261    0.03858   11.45035
   3.98398    0.01667    8.37602    0.03883   11.45806
   4.00400    0.01677    8.37936    0.03908   11.46591
   4.02402    0.01687    8.38269    0.03932   11.47362
   4.04404    0.01697    8.38610    0.03958   11.48162
   4.06406    0.01707    8.38959    0.03983   11.48948
   4.08408    0.01717    8.39292    0.04008   11.49748
   4.10410    0.01727    8.39648    0.04033   11.50564
   4.12412    0.01737    8.39981    0.04059   11.51364
   4.14414    0.01747    8.40330    0.04084   11.52179
   4.16416    0.01757    8.40685    0.04110   11.53009
   4.18418    0.01767    8.41034    0.04136   11.53825
   4.20420    0.01777    8.41389    0.04161   11.54655
   4.22422    0.01787    8.41753    0.04187   11.55500
   4.24424    0.01797    8.42101    0.04213   11.56337
   4.26426    0.01807    8.42472    0.04239   11.57182
   4.28428    0.01817    8.42835    0.04266   11.58027
   4.30430    0.01828    8.43198    0.04292   11.58887
   4.32432    0.01838    8.43568    0.04318   11.59746
   4.34434    0.01848    8.43931    0.04345   11.60613
   4.36436    0.01858    8.44310    0.04372   11.61488
   4.38438    0.01869    8.44673    0.04398   11.62362
   4.40440    0.01879    8.45058    0.04425   11.63252
   4.42442    0.01889    8.45421    0.04452   11.64134
   4.44444    0.01900    8.45799    0.04479   11.65038
   4.46446    0.01910    8.46185    0.04506   11.65927
   4.48448    0.01921    8.46577    0.04534   11.66846
   4.50450    0.01931    8.46955    0.04561   11.67743
   4.52452    0.01942    8.47348    0.04589   11.68662
   4.54454    0.01952    8.47733    0.04616   11.69588
   4.56456    0.01963    8.48126    0.04644   11.70507
   4.58458    0.01973    8.48519    0.04672   11.71441
   4.60460    0.01984    8.48919    0.04700   11.72382
   4.62462    0.01995    8.49312    0.04728   11.73331
   4.64464    0.02005    8.49720    0.04756   11.74272
   4.66466    0.02016    8.50113    0.04784   11.75236
   4.68468    0.02027    8.50527    0.04813   11.76192
   4.70470    0.02038    8.50935    0.04841   11.77155
   4.72472    0.02049    8.51343    0.04870   11.78126
   4.74474    0.02059    8.51750    0.04899   11.79104
   4.76476    0.02070    8.52165    0.04928   11.80090
   4.78478    0.02081    8.52588    0.04957   11.81083
   4.80480    0.02092    8.52995    0.04986   11.82069
   4.82482    0.02103    8.53418    0.05016   11.83077
   4.84484    0.02114    8.53840    0.05045   11.84077
   4.86486    0.02125    8.54270    0.05075   11.85093
   4.88488    0.02136    8.54693    0.05104   11.86115
   4.90490    0.02147    8.55115    0.05134   11.87131
   4.92492    0.02158    8.55552    0.05164   11.88161
   4.94494    0.02170    8.55975    0.05194   11.89213
   4.96496    0.02181    8.56419    0.05224   11.90243
   4.98498    0.02192    8.56857    0.05255   11.91288
   5.00500    0.02203    8.57294    0.05285   11.92348
   5.02502    0.02215    8.57731    0.05316   11.93408
   5.04504    0.02226    8.58183    0.05347   11.94475
   5.06506    0.02237    8.58621    0.05378   11.95550
   5.08508    0.02249    8.59080    0.05409   11.96625
   5.10510    0.02260    8.59532    0.05440   11.97714
   5.12512    0.02272    8.59984    0.05472   11.98803
   5.14514    0.02283    8.60436    0.05503   11.99908
   5.16516    0.02295    8.60903    0.05535   12.01012
   5.18518    0.02306    8.61355    0.05567   12.02124
   5.20520    0.02318    8.61822    0.05599   12.03243
   5.22522    0.02330    8.62289    0.05631   12.04362
   5.24524    0.02341    8.62763    0.05663   12.05496
   5.26526    0.02353    8.63230    0.05695   12.06630
   5.28528    0.02365    8.63697    0.05728   12.07778
   5.30531    0.02377    8.64164    0.05761   12.08920
   5.32533    0.02389    8.64646    0.05794   12.10083
   5.34535    0.02400    8.65128    0.05827   12.11247
   5.36537    0.02412    8.65609    0.05860   12.12410
   5.38539    0.02424    8.66091    0.05893   12.13589
   5.40541    0.02436    8.66573    0.05927   12.14767
   5.42543    0.02448    8.67069    0.05960   12.15960
   5.44545    0.02461    8.67559    0.05994   12.17161
   5.46547    0.02473    8.68055    0.06028   12.18354
   5.48549    0.02485    8.68552    0.06063   12.19577
   5.50551    0.02497    8.69048    0.06097   12.20785
   5.52553    0.02509    8.69545    0.06132   12.22015
   5.54555    0.02522    8.70056    0.06166   12.23238
   5.56557    0.02534    8.70553    0.06201   12.24476
   5.58559    0.02546    8.71064    0.06236   12.25721
   5.60561    0.02559    8.71575    0.06271   12.26973
   5.62563    0.02571    8.72087    0.06307   12.28241
   5.64565    0.02584    8.72613    0.06342   12.29501
   5.66567    0.02596    8.73124    0.06378   12.30783
   5.68569    0.02609    8.73651    0.06414   12.32058
   5.70571    0.02621    8.74177    0.06450   12.33340
   5.72573    0.02634    8.74703    0.06487   12.34629
   5.74575    0.02647    8.75229    0.06523   12.35941
   5.76577    0.02659    8.75755    0.06560   12.37245
   5.78579    0.02672    8.76296    0.06597   12.38572
   5.80581    0.02685    8.76823    0.06634   12.39891
   5.82583    0.02698    8.77363    0.06671   12.41225
   5.84585    0.02711    8.77905    0.06709   12.42567
   5.86587    0.02724    8.78446    0.06747   12.43901
   5.88589    0.02737    8.79001    0.06784   12.45264
   5.90591    0.02750    8.79543    0.06823   12.46621
   5.92593    0.02763    8.80091    0.06861   12.47999
   5.94595    0.02776    8.80647    0.06899   12.49363
   5.96597    0.02790    8.81203    0.06938   12.50756
   5.98599    0.02803    8.81758    0.06977   12.52149
   6.00601    0.02816    8.82329    0.07016   12.53543
   6.02603    0.02829    8.82900    0.07055   12.54958
   6.04605    0.02843    8.83456    0.07095   12.56366
   6.06607    0.02856    8.84041    0.07135   12.57789
   6.08609    0.02870    8.84612    0.07175   12.59227
   6.10611    0.02883    8.85182    0.07215   12.60665
   6.12613    0.02897    8.85760    0.07255   12.62118
   6.14615    0.02911    8.86346    0.07296   12.63570
   6.16617    0.02924    8.86917    0.07337   12.65038
   6.18619    0.02938    8.87517    0.07378   12.66498
   6.20621    0.02952    8.88102    0.07419   12.67980
   6.22623    0.02966    8.88703    0.07461   12.69477
   6.24625    0.02980    8.89288    0.07503   12.70974
   6.26627    0.02994    8.89881    0.07545   12.72486
   6.28629    0.03008    8.90481    0.07587   12.73990
   6.30631    0.03022    8.91096    0.07630   12.75517
   6.32633    0.03036    8.91697    0.07672   12.77044
   6.34635    0.03050    8.92312    0.07715   12.78585
   6.36637    0.03064    8.92927    0.07759   12.80134
   6.38639    0.03079    8.93535    0.07802   12.81691
   6.40641    0.03093    8.94150    0.07846   12.83254
   6.42643    0.03107    8.94765    0.07890   12.84840
   6.44645    0.03122    8.95395    0.07934   12.86419
   6.46647    0.03136    8.96018    0.07979   12.88020
   6.48649    0.03151    8.96648    0.08024   12.89613
   6.50651    0.03165    8.97278    0.08069   12.91229
   6.52653    0.03180    8.97922    0.08114   12.92837
   6.54655    0.03195    8.98545    0.08160   12.94468
   6.56657    0.03210    8.99190    0.08205   12.96105
   6.58659    0.03225    8.99834    0.08252   12.97758
   6.60661    0.03239    9.00494    0.08298   12.99411
   6.62663    0.03254    9.01131    0.08345   13.01086
   6.64665    0.03270    9.01791    0.08392   13.02753
