#                                                           
# ooooo   oooo ..     ooo        ooo ooooooooo.    .oooo.   
#  `88.   .8" .88.    `88.       .88 `88"   `Y8b  dP"  `Yb  
#   `88. .8" .8"88.    888b     d"88  88     888 88      88 
#    `88.8" .8" `88.   8 Y88. .P  88  88oooo888" 88      88 
#     `88" .88ooo888.  8  `888"   88  88    `88b 88      88 
#      88 .8"     `88. 8    Y     88  88    .88P `8b    d8" 
#     o88o88o      888o8          88 o88bood8P"   `Ybod8P"  
#                                                           
#                                                           
#                Version 4.0.2 Revision 5431                
#                         MPI Build                         
#                 http://www.yambo-code.org                 
#
# Absorption @ Q(1) [q->0 direction] :0.1000E-4  0.000     0.000   
#
#
# - Energies      are Teter 93(XC)+Scissor
# - Wavefunctions are Teter 93(XC)
#
# - The Green`s function is causal -
# - Using the Length Gauge -
# - [r,Vnl] *is* included -
#
#   BSK|Identifier              :2197
#      |Dimension               :16
#      |Bands                   :7 - 10
#      |Exchange           [res]: yes
#      |Correlation        [res]: yes
#      |Kernel`s coupling       : yes
#      |Exchange           [cpl]: yes
#      |Correlation        [cpl]: no
#      |W interaction is bare   : no
#      |ALDA kernel in R-space  : no
#      |RL vectors    [exchange]:3413
#      |RL vectors [correlation]:107
#      |E/h energy range    [ev]:-1.000000 - -1.000000
#      |Coupling range     [o/o]: 100.0000 -  100.0000
#    W |Interaction is diagonal : no
#      |Matrix size             :107
#      |Bands                   :1 - 50
#      |e/h energy range    [ev]:-1.000000 - -1.000000
#      |Poles              [o/o]: 100.0000
#      |RL vectors in the sum   :3317
#      |[r,Vnl] included        : yes
#      |Field direction         :0.1000E-4  0.000000  0.000000
#      |Coulomb Cutoff          :none
#      |xc-Kernel               :none
#   RIM|RL components      [col]:0
#      |Random points      [col]:0
#
#  E/ev[1]    EPS-Im[2]  EPS-Re[3]  EPSo-Im[4] EPSo-Re[5]
#
   3.00000    0.16665    8.25938    0.07230    6.38285
   3.01000    0.16797    8.27607    0.07273    6.39010
   3.02000    0.16932    8.29289    0.07317    6.39738
   3.03000    0.17067    8.30984    0.07362    6.40471
   3.04000    0.17204    8.32693    0.07406    6.41209
   3.05000    0.17342    8.34416    0.07451    6.41951
   3.06000    0.17481    8.36152    0.07496    6.42697
   3.07000    0.17622    8.37903    0.07542    6.43448
   3.08000    0.17764    8.39667    0.07588    6.44203
   3.09000    0.17908    8.41446    0.07634    6.44963
   3.10000    0.18053    8.43239    0.07680    6.45728
   3.11000    0.18200    8.45047    0.07727    6.46497
   3.12000    0.18348    8.46869    0.07773    6.47271
   3.13000    0.18498    8.48706    0.07821    6.48050
   3.14000    0.18649    8.50558    0.07868    6.48833
   3.15000    0.18802    8.52426    0.07916    6.49622
   3.16000    0.18957    8.54308    0.07964    6.50415
   3.17000    0.19113    8.56206    0.08013    6.51212
   3.18000    0.19271    8.58120    0.08062    6.52015
   3.19000    0.19430    8.60049    0.08111    6.52823
   3.20000    0.19591    8.61995    0.08160    6.53635
   3.21000    0.19754    8.63956    0.08210    6.54452
   3.22000    0.19919    8.65934    0.08260    6.55275
   3.23000    0.20085    8.67928    0.08311    6.56102
   3.24000    0.20253    8.69939    0.08362    6.56935
   3.25000    0.20423    8.71967    0.08413    6.57772
   3.26000    0.20595    8.74012    0.08465    6.58615
   3.27000    0.20769    8.76073    0.08516    6.59463
   3.28000    0.20945    8.78152    0.08569    6.60316
   3.29000    0.21122    8.80249    0.08621    6.61174
   3.30000    0.21302    8.82364    0.08674    6.62038
   3.31000    0.21483    8.84496    0.08728    6.62907
   3.32000    0.21667    8.86647    0.08782    6.63781
   3.33000    0.21853    8.88816    0.08836    6.64660
   3.34000    0.22041    8.91004    0.08890    6.65545
   3.35000    0.22230    8.93210    0.08945    6.66436
   3.36000    0.22423    8.95436    0.09000    6.67332
   3.37000    0.22617    8.97680    0.09056    6.68233
   3.38000    0.22813    8.99944    0.09112    6.69140
   3.39000    0.23012    9.02227    0.09169    6.70053
   3.40000    0.23213    9.04531    0.09225    6.70971
   3.41000    0.23417    9.06855    0.09283    6.71895
   3.42000    0.23622    9.09199    0.09340    6.72825
   3.43000    0.23831    9.11563    0.09399    6.73761
   3.44000    0.24041    9.13949    0.09457    6.74702
   3.45000    0.24255    9.16355    0.09516    6.75649
   3.46000    0.24470    9.18783    0.09576    6.76602
   3.47000    0.24689    9.21232    0.09635    6.77562
   3.48000    0.24910    9.23703    0.09696    6.78527
   3.49000    0.25133    9.26196    0.09756    6.79498
   3.50000    0.25359    9.28711    0.09818    6.80475
   3.51000    0.25588    9.31250    0.09879    6.81458
   3.52000    0.25820    9.33811    0.09941    6.82448
  3.530000   0.260550   9.363949   0.100040   6.834433
  3.540000   0.262927   9.390022   0.100671   6.844453
  3.550000   0.265332   9.416338   0.101306   6.854536
  3.560000   0.267767   9.442891   0.101946   6.864682
  3.570000   0.270233   9.469690   0.102591   6.874893
  3.580000   0.272730   9.496731   0.103241   6.885167
  3.590000   0.275259   9.524025   0.103896   6.895508
  3.600000   0.277819   9.551571   0.104556   6.905913
  3.610000   0.280412   9.579372   0.105221   6.916385
  3.620000   0.283039   9.607433   0.105891   6.926924
  3.630000   0.285699   9.635756   0.106567   6.937528
  3.640000   0.288394   9.664346   0.107248   6.948201
  3.650000   0.291123   9.693202   0.107934   6.958942
  3.660000   0.293888   9.722333   0.108625   6.969753
  3.670000   0.296690   9.751740   0.109322   6.980632
  3.680000   0.299528   9.781425   0.110024   6.991580
  3.690000   0.302404   9.811396   0.110732   7.002599
  3.700000   0.305318   9.841652   0.111446   7.013689
  3.710000   0.308271   9.872198   0.112165   7.024851
  3.720000   0.311264   9.903043   0.112890   7.036084
  3.730000   0.314297   9.934185   0.113621   7.047390
  3.740000   0.317371   9.965628   0.114358   7.058770
  3.750000   0.320487   9.997380   0.115101   7.070222
   3.76000    0.32365   10.02944    0.11585    7.08175
   3.77000    0.32685   10.06182    0.11660    7.09335
   3.78000    0.33009   10.09452    0.11737    7.10503
   3.79000    0.33339   10.12754    0.11813    7.11678
   3.80000    0.33672   10.16089    0.11891    7.12861
   3.81000    0.34011   10.19457    0.11969    7.14052
   3.82000    0.34354   10.22859    0.12047    7.15251
   3.83000    0.34702   10.26296    0.12127    7.16457
   3.84000    0.35055   10.29767    0.12207    7.17672
   3.85000    0.35413   10.33273    0.12287    7.18894
   3.86000    0.35776   10.36815    0.12369    7.20125
   3.87000    0.36145   10.40394    0.12451    7.21363
   3.88000    0.36519   10.44009    0.12533    7.22610
   3.89000    0.36898   10.47661    0.12617    7.23865
   3.90000    0.37283   10.51351    0.12701    7.25129
   3.91000    0.37673   10.55080    0.12786    7.26401
   3.92000    0.38070   10.58847    0.12871    7.27681
   3.93000    0.38472   10.62655    0.12957    7.28970
   3.94000    0.38880   10.66502    0.13044    7.30268
   3.95000    0.39294   10.70389    0.13132    7.31574
   3.96000    0.39715   10.74319    0.13221    7.32889
   3.97000    0.40142   10.78290    0.13310    7.34213
   3.98000    0.40576   10.82304    0.13400    7.35546
   3.99000    0.41016   10.86361    0.13491    7.36888
   4.00000    0.41463   10.90461    0.13583    7.38239
   4.01000    0.41917   10.94607    0.13675    7.39599
   4.02000    0.42378   10.98798    0.13769    7.40968
   4.03000    0.42847   11.03034    0.13863    7.42347
   4.04000    0.43323   11.07318    0.13958    7.43735
   4.05000    0.43806   11.11648    0.14054    7.45133
   4.06000    0.44297   11.16028    0.14151    7.46540
   4.07000    0.44796   11.20456    0.14248    7.47957
   4.08000    0.45303   11.24933    0.14347    7.49384
   4.09000    0.45819   11.29462    0.14446    7.50821
   4.10000    0.46342   11.34041    0.14546    7.52267
   4.11000    0.46875   11.38672    0.14647    7.53724
   4.12000    0.47416   11.43357    0.14750    7.55191
   4.13000    0.47966   11.48096    0.14853    7.56668
   4.14000    0.48525   11.52889    0.14957    7.58155
   4.15000    0.49094   11.57738    0.15062    7.59652
   4.16000    0.49672   11.62644    0.15168    7.61161
   4.17000    0.50260   11.67607    0.15275    7.62679
   4.18000    0.50859   11.72629    0.15383    7.64209
   4.19000    0.51467   11.77710    0.15492    7.65749
   4.20000    0.52086   11.82852    0.15602    7.67300
   4.21000    0.52716   11.88056    0.15713    7.68863
   4.22000    0.53357   11.93322    0.15825    7.70436
   4.23000    0.54009   11.98652    0.15938    7.72021
   4.24000    0.54673   12.04047    0.16053    7.73616
   4.25000    0.55349   12.09508    0.16168    7.75224
   4.26000    0.56037   12.15036    0.16285    7.76843
   4.27000    0.56737   12.20632    0.16402    7.78473
   4.28000    0.57450   12.26298    0.16521    7.80115
   4.29000    0.58176   12.32035    0.16641    7.81770
   4.30000    0.58915   12.37844    0.16762    7.83436
   4.31000    0.59668   12.43727    0.16884    7.85114
   4.32000    0.60435   12.49684    0.17008    7.86805
   4.33000    0.61216   12.55718    0.17133    7.88507
   4.34000    0.62012   12.61829    0.17259    7.90223
   4.35000    0.62824   12.68020    0.17386    7.91951
   4.36000    0.63650   12.74290    0.17515    7.93692
   4.37000    0.64493   12.80644    0.17645    7.95445
   4.38000    0.65352   12.87080    0.17776    7.97212
   4.39000    0.66228   12.93602    0.17908    7.98991
   4.40000    0.67121   13.00211    0.18042    8.00784
   4.41000    0.68031   13.06909    0.18177    8.02591
   4.42000    0.68960   13.13696    0.18314    8.04411
   4.43000    0.69907   13.20577    0.18452    8.06244
   4.44000    0.70874   13.27551    0.18591    8.08092
   4.45000    0.71860   13.34621    0.18732    8.09953
   4.46000    0.72866   13.41788    0.18875    8.11828
   4.47000    0.73893   13.49056    0.19019    8.13718
   4.48000    0.74941   13.56425    0.19164    8.15622
   4.49000    0.76011   13.63898    0.19311    8.17541
   4.50000    0.77103   13.71477    0.19459    8.19474
   4.51000    0.78219   13.79164    0.19609    8.21422
   4.52000    0.79358   13.86962    0.19761    8.23385
   4.53000    0.80522   13.94873    0.19914    8.25363
   4.54000    0.81711   14.02898    0.20069    8.27357
   4.55000    0.82926   14.11042    0.20226    8.29366
   4.56000    0.84168   14.19306    0.20384    8.31391
   4.57000    0.85437   14.27692    0.20544    8.33431
   4.58000    0.86734   14.36204    0.20706    8.35488
   4.59000    0.88060   14.44845    0.20870    8.37561
   4.60000    0.89417   14.53616    0.21035    8.39650
   4.61000    0.90804   14.62521    0.21202    8.41756
   4.62000    0.92223   14.71564    0.21371    8.43878
   4.63000    0.93675   14.80746    0.21542    8.46017
   4.64000    0.95161   14.90072    0.21715    8.48174
   4.65000    0.96681   14.99545    0.21890    8.50347
   4.66000    0.98238   15.09168    0.22066    8.52538
   4.67000    0.99832   15.18944    0.22245    8.54747
   4.68000    1.01464   15.28877    0.22426    8.56974
   4.69000    1.03136   15.38972    0.22609    8.59219
   4.70000    1.04849   15.49231    0.22794    8.61482
   4.71000    1.06604   15.59659    0.22981    8.63763
   4.72000    1.08402   15.70260    0.23170    8.66064
   4.73000    1.10246   15.81038    0.23362    8.68383
   4.74000    1.12136   15.91997    0.23555    8.70721
   4.75000    1.14075   16.03142    0.23751    8.73079
   4.76000    1.16063   16.14478    0.23950    8.75456
   4.77000    1.18103   16.26009    0.24150    8.77853
   4.78000    1.20196   16.37741    0.24353    8.80270
   4.79000    1.22345   16.49678    0.24559    8.82708
   4.80000    1.24551   16.61826    0.24767    8.85166
   4.81000    1.26816   16.74191    0.24977    8.87644
   4.82000    1.29142   16.86778    0.25190    8.90144
   4.83000    1.31532   16.99593    0.25405    8.92665
   4.84000    1.33988   17.12642    0.25624    8.95208
   4.85000    1.36513   17.25931    0.25844    8.97772
   4.86000    1.39108   17.39468    0.26068    9.00359
   4.87000    1.41777   17.53258    0.26294    9.02967
   4.88000    1.44523   17.67310    0.26523    9.05599
   4.89000    1.47348   17.81629    0.26755    9.08253
   4.90000    1.50255   17.96225    0.26990    9.10931
   4.91000    1.53249   18.11104    0.27228    9.13632
   4.92000    1.56331   18.26275    0.27469    9.16356
   4.93000    1.59506   18.41746    0.27712    9.19105
   4.94000    1.62778   18.57528    0.27959    9.21878
   4.95000    1.66150   18.73627    0.28210    9.24676
   4.96000    1.69627   18.90054    0.28463    9.27499
   4.97000    1.73212   19.06819    0.28719    9.30347
   4.98000    1.76911   19.23932    0.28979    9.33220
   4.99000    1.80729   19.41403    0.29243    9.36120
   5.00000    1.84670   19.59245    0.29509    9.39046
   5.01000    1.88740   19.77469    0.29780    9.41998
   5.02000    1.92944   19.96086    0.30054    9.44978
   5.03000    1.97289   20.15109    0.30331    9.47985
   5.04000    2.01780   20.34553    0.30612    9.51020
   5.05000    2.06425   20.54429    0.30897    9.54082
   5.06000    2.11230   20.74753    0.31186    9.57174
   5.07000    2.16203   20.95540    0.31479    9.60293
   5.08000    2.21352   21.16804    0.31775    9.63443
   5.09000    2.26686   21.38564    0.32076    9.66622
   5.10000    2.32212   21.60835    0.32381    9.69831
   5.11000    2.37941   21.83635    0.32690    9.73070
   5.12000    2.43883   22.06983    0.33003    9.76340
   5.13000    2.50047   22.30899    0.33321    9.79641
   5.14000    2.56446   22.55403    0.33643    9.82974
   5.15000    2.63091   22.80516    0.33970    9.86340
   5.16000    2.69996   23.06260    0.34301    9.89738
   5.17000    2.77174   23.32662    0.34637    9.93169
   5.18000    2.84638   23.59742    0.34978    9.96633
   5.19000    2.92406   23.87528    0.35323   10.00132
   5.20000    3.00493   24.16048    0.35674   10.03665
   5.21000    3.08917   24.45329    0.36030   10.07233
   5.22000    3.17698   24.75401    0.36391   10.10836
   5.23000    3.26855   25.06296    0.36757   10.14476
   5.24000    3.36410   25.38049    0.37128   10.18152
   5.25000    3.46387   25.70691    0.37505   10.21865
   5.26000    3.56811   26.04264    0.37888   10.25615
   5.27000    3.67708   26.38801    0.38277   10.29404
   5.28000    3.79109   26.74346    0.38671   10.33232
   5.29000    3.91044   27.10940    0.39071   10.37099
   5.30000    4.03547   27.48629    0.39477   10.41006
   5.31000    4.16655   27.87462    0.39890   10.44953
   5.32000    4.30407   28.27486    0.40309   10.48941
   5.33000    4.44847   28.68755    0.40734   10.52972
   5.34000    4.60019   29.11324    0.41166   10.57044
   5.35000    4.75974   29.55252    0.41604   10.61160
   5.36000    4.92765   30.00598    0.42050   10.65319
   5.37000    5.10449   30.47426    0.42502   10.69523
   5.38000    5.29089   30.95806    0.42962   10.73772
   5.39000    5.48750   31.45806    0.43429   10.78067
   5.40000    5.69502   31.97503    0.43904   10.82408
   5.41000    5.91419   32.50977    0.44386   10.86796
   5.42000    6.14582   33.06318    0.44876   10.91233
   5.43000    6.39075   33.63622    0.45374   10.95718
   5.44000    6.64993   34.22997    0.45880   11.00253
   5.45000    6.92442   34.84560    0.46395   11.04839
   5.46000    7.21545   35.48443    0.46918   11.09475
   5.47000    7.52442   36.14786    0.47449   11.14164
   5.48000    7.85294   36.83733    0.47990   11.18906
   5.49000    8.20283   37.55439    0.48540   11.23701
   5.50000    8.57613   38.30059    0.49099   11.28551
   5.51000    8.97509   39.07751    0.49668   11.33457
   5.52000    9.40219   39.88689    0.50246   11.38420
   5.53000    9.86011   40.73040    0.50835   11.43440
   5.54000   10.35187   41.60993    0.51434   11.48519
   5.55000   10.88079   42.52745    0.52043   11.53657
   5.56000   11.45059   43.48503    0.52663   11.58856
   5.57000   12.06542   44.48490    0.53294   11.64116
   5.58000   12.72995   45.52936    0.53936   11.69439
   5.59000   13.44947   46.62083    0.54590   11.74827
   5.60000   14.22992   47.76186    0.55256   11.80278
   5.61000   15.07812   48.95511    0.55933   11.85797
   5.62000   16.00167   50.20312    0.56624   11.91383
   5.63000   17.00936   51.50861    0.57326   11.97037
   5.64000   18.11118   52.87415    0.58042   12.02761
   5.65000   19.31855   54.30222    0.58771   12.08556
   5.66000   20.64458   55.79498    0.59514   12.14424
   5.67000   22.10430   57.35419    0.60271   12.20366
   5.68000   23.71501   58.98098    0.61042   12.26382
   5.69000   25.49661   60.67548    0.61828   12.32475
   5.70000   27.47202   62.43650    0.62630   12.38647
   5.71000   29.66770   64.26093    0.63446   12.44898
   5.72000   32.11403   66.14300    0.64279   12.51230
   5.73000   34.84601   68.07337    0.65128   12.57644
   5.74000   37.90366   70.03764    0.65994   12.64143
   5.75000   41.33255   72.01482    0.66877   12.70728
   5.76000   45.18407   73.97485    0.67778   12.77400
   5.77000   49.51538   75.87571    0.68698   12.84162
   5.78000   54.38878   77.65944    0.69635   12.91014
   5.79000   59.86980   79.24757    0.70593   12.97960
   5.80000   66.02386   80.53506    0.71570   13.05001
   5.81000   72.91006   81.38405    0.72567   13.12138
   5.82000   80.57121   81.61690    0.73585   13.19374
   5.83000   89.01871   81.01121    0.74625   13.26711
   5.84000   98.21097   79.29846    0.75687   13.34152
    5.8500   108.0253    76.1717     0.7677    13.4170
    5.8600   118.2261    71.3070     0.7788    13.4935
    5.8700   128.4359    64.4060     0.7901    13.5711
    5.8800   138.1220    55.2634     0.8017    13.6499
    5.8900   146.6206    43.8486     0.8135    13.7297
    5.9000   153.2092    30.3862     0.8256    13.8108
    5.9100   157.2310    15.3953     0.8380    13.8930
    5.9200   158.2412    -0.3462     0.8506    13.9765
    5.9300   156.1228   -15.9209     0.8635    14.0612
    5.9400   151.1188   -30.4431     0.8768    14.1472
    5.9500   143.7658   -43.2179     0.8903    14.2345
    5.9600   134.7605   -53.8322     0.9041    14.3232
    5.9700   124.8171   -62.1590     0.9183    14.4132
    5.9800   114.5579   -68.3018     0.9328    14.5046
    5.9900   104.4599   -72.5086     0.9477    14.5974
   6.00000   94.84750  -75.09293    0.96291   14.69172
   6.01000   85.91234  -76.37635    0.97850   14.78752
   6.02000   77.74451  -76.65372    0.99447   14.88485
   6.03000   70.36380  -76.17735    1.01084   14.98376
   6.04000   63.74543  -75.15326    1.02762   15.08428
   6.05000   57.83931  -73.74409    1.04482   15.18645
   6.06000   52.58319  -72.07525    1.06246   15.29031
   6.07000   47.91106  -70.24156    1.08055   15.39590
   6.08000   43.75822  -68.31357    1.09912   15.50327
   6.09000   40.06413  -66.34296    1.11816   15.61247
   6.10000   36.77361  -64.36713    1.13772   15.72353
   6.11000   33.83735  -62.41260    1.15779   15.83652
   6.12000   31.21183  -60.49779    1.17840   15.95147
   6.13000   28.85889  -58.63506    1.19957   16.06844
   6.14000   26.74523  -56.83241    1.22132   16.18749
   6.15000   24.84192  -55.09450    1.24368   16.30866
   6.16000   23.12383  -53.42372    1.26666   16.43203
   6.17000   21.56917  -51.82071    1.29028   16.55764
   6.18000   20.15899  -50.28493    1.31458   16.68556
   6.19000   18.87685  -48.81504    1.33959   16.81585
   6.20000   17.70842  -47.40908    1.36532   16.94858
   6.21000   16.64123  -46.06473    1.39180   17.08382
   6.22000   15.66439  -44.77953    1.41907   17.22165
   6.23000   14.76831  -43.55074    1.44717   17.36214
