#                                                           
#  /$$     /$$ /$$$$$$  /$$      /$$ /$$$$$$$   /$$$$$$     
# |  $$   /$$//$$__  $$| $$$    /$$$| $$__  $$ /$$__  $$    
#  \  $$ /$$/| $$  \ $$| $$$$  /$$$$| $$  \ $$| $$  \ $$    
#   \  $$$$/ | $$$$$$$$| $$ $$/$$ $$| $$$$$$$ | $$  | $$    
#    \  $$/  | $$__  $$| $$  $$$| $$| $$__  $$| $$  | $$    
#     | $$   | $$  | $$| $$\  $ | $$| $$  \ $$| $$  | $$    
#     | $$   | $$  | $$| $$ \/  | $$| $$$$$$$/|  $$$$$$/    
#     |__/   |__/  |__/|__/     |__/|_______/  \______/     
#                                                           
#              Version 3.3.1 Revision 2093                  
#               http://www.yambo-code.org                   
#
# Absorption @ Q(1) [q->0 direction] :0.1000E-4  0.000     0.000   
#
#
# - Energies      are +AMGB (for 2D systems)(C)+Scissor
# - Wavefunctions are +AMGB (for 2D systems)(C)
#
# - The Green`s function is resonant -
# - Using Shifted Grids -
# - [r,Vnl] *is* included -
#
#   BSK|Identifier              :8450
#      |Dimension               :80
#      |Bands                   :1 - 2
#      |Exchange           [res]: yes
#      |Correlation        [res]: yes
#      |Kernel`s coupling       : no
#      |Exchange           [cpl]: no
#      |W interaction is bare   : no
#      |Correlation        [cpl]: no
#      |ALDA kernel in R-space  : no
#      |RL vectors    [exchange]:8493
#      |RL vectors [correlation]:111
#      |E/h energy range    [ev]:-1.000000 - -1.000000
#      |Coupling range     [o/o]: 100.0000 -  100.0000
#    W |Interaction is diagonal : no
#      |Matrix size             :119
#      |Bands                   :1 - 2
#      |e/h energy range    [ev]:-1.000000 - -1.000000
#      |Poles              [o/o]: 100.0000
#      |Rl vectors in the sum   :8493
#      |[r,Vnl] included        : yes
#      |Field direction         :0.1000E-4  0.000000  0.000000
#      |Coulomb Cutoff        :none
#      |xc-Kernel               :none
#   RIM|RL components      [col]:0
#      |Random points      [col]:0
#
#  E/ev[1]    eps /Im[2] eps /Re[3] eps0/Im[4] eps0/Re[5]
#
    0.0000     0.0205     0.5400     0.0029     1.1792
    0.0100     0.0203     0.5421     0.0029     1.1795
    0.0200     0.0202     0.5441     0.0029     1.1798
    0.0300     0.0200     0.5461     0.0029     1.1801
    0.0400     0.0199     0.5481     0.0029     1.1804
    0.0501     0.0197     0.5500     0.0030     1.1807
    0.0601     0.0196     0.5520     0.0030     1.1810
    0.0701     0.0194     0.5539     0.0030     1.1813
    0.0801     0.0193     0.5559     0.0030     1.1816
    0.0901     0.0191     0.5578     0.0030     1.1819
    0.1001     0.0190     0.5597     0.0030     1.1822
    0.1101     0.0189     0.5616     0.0030     1.1825
    0.1201     0.0187     0.5634     0.0030     1.1828
    0.1301     0.0186     0.5653     0.0030     1.1831
    0.1401     0.0185     0.5672     0.0030     1.1834
    0.1502     0.0183     0.5690     0.0031     1.1837
    0.1602     0.0182     0.5708     0.0031     1.1840
    0.1702     0.0181     0.5726     0.0031     1.1843
    0.1802     0.0180     0.5744     0.0031     1.1846
    0.1902     0.0179     0.5762     0.0031     1.1849
    0.2002     0.0178     0.5780     0.0031     1.1852
    0.2102     0.0177     0.5797     0.0031     1.1855
    0.2202     0.0175     0.5815     0.0031     1.1858
    0.2302     0.0174     0.5832     0.0031     1.1862
    0.2402     0.0173     0.5850     0.0032     1.1865
    0.2503     0.0172     0.5867     0.0032     1.1868
    0.2603     0.0171     0.5884     0.0032     1.1871
    0.2703     0.0170     0.5901     0.0032     1.1874
    0.2803     0.0170     0.5918     0.0032     1.1877
    0.2903     0.0169     0.5935     0.0032     1.1881
    0.3003     0.0168     0.5952     0.0032     1.1884
    0.3103     0.0167     0.5968     0.0032     1.1887
    0.3203     0.0166     0.5985     0.0032     1.1890
    0.3303     0.0165     0.6001     0.0032     1.1894
    0.3403     0.0165     0.6018     0.0033     1.1897
    0.3504     0.0164     0.6034     0.0033     1.1900
    0.3604     0.0163     0.6050     0.0033     1.1903
    0.3704     0.0163     0.6066     0.0033     1.1907
    0.3804     0.0162     0.6082     0.0033     1.1910
    0.3904     0.0162     0.6099     0.0033     1.1913
    0.4004     0.0161     0.6115     0.0033     1.1917
    0.4104     0.0161     0.6130     0.0033     1.1920
    0.4204     0.0160     0.6146     0.0034     1.1923
    0.4304     0.0160     0.6162     0.0034     1.1927
    0.4404     0.0160     0.6178     0.0034     1.1930
    0.4505     0.0160     0.6194     0.0034     1.1933
    0.4605     0.0159     0.6209     0.0034     1.1937
    0.4705     0.0159     0.6225     0.0034     1.1940
    0.4805     0.0159     0.6241     0.0034     1.1944
    0.4905     0.0159     0.6256     0.0034     1.1947
    0.5005     0.0160     0.6272     0.0035     1.1950
    0.5105     0.0160     0.6288     0.0035     1.1954
    0.5205     0.0160     0.6303     0.0035     1.1957
    0.5305     0.0161     0.6319     0.0035     1.1961
    0.5405     0.0162     0.6334     0.0035     1.1964
    0.5506     0.0162     0.6350     0.0035     1.1968
    0.5606     0.0163     0.6366     0.0035     1.1971
    0.5706     0.0165     0.6381     0.0035     1.1975
    0.5806     0.0166     0.6397     0.0036     1.1979
    0.5906     0.0168     0.6413     0.0036     1.1982
    0.6006     0.0170     0.6428     0.0036     1.1986
    0.6106     0.0172     0.6444     0.0036     1.1989
    0.6206     0.0174     0.6460     0.0036     1.1993
    0.6306     0.0177     0.6476     0.0036     1.1996
    0.6406     0.0181     0.6492     0.0036     1.2000
    0.6507     0.0184     0.6508     0.0036     1.2004
    0.6607     0.0189     0.6523     0.0037     1.2007
    0.6707     0.0194     0.6539     0.0037     1.2011
    0.6807     0.0200     0.6555     0.0037     1.2015
    0.6907     0.0206     0.6571     0.0037     1.2018
    0.7007     0.0214     0.6586     0.0037     1.2022
    0.7107     0.0222     0.6601     0.0037     1.2026
    0.7207     0.0232     0.6615     0.0037     1.2030
    0.7307     0.0243     0.6629     0.0038     1.2033
    0.7407     0.0255     0.6642     0.0038     1.2037
    0.7508     0.0269     0.6653     0.0038     1.2041
    0.7608     0.0284     0.6662     0.0038     1.2045
    0.7708     0.0300     0.6669     0.0038     1.2048
    0.7808     0.0317     0.6673     0.0038     1.2052
    0.7908     0.0334     0.6674     0.0038     1.2056
    0.8008     0.0351     0.6671     0.0039     1.2060
    0.8108     0.0366     0.6663     0.0039     1.2064
    0.8208     0.0378     0.6652     0.0039     1.2068
    0.8308     0.0386     0.6637     0.0039     1.2072
    0.8408     0.0389     0.6621     0.0039     1.2075
    0.8509     0.0387     0.6605     0.0039     1.2079
    0.8609     0.0379     0.6589     0.0039     1.2083
    0.8709     0.0366     0.6577     0.0040     1.2087
    0.8809     0.0351     0.6568     0.0040     1.2091
    0.8909     0.0333     0.6563     0.0040     1.2095
    0.9009     0.0314     0.6561     0.0040     1.2099
    0.9109     0.0296     0.6564     0.0040     1.2103
    0.9209     0.0278     0.6569     0.0040     1.2107
    0.9309     0.0261     0.6577     0.0040     1.2111
    0.9409     0.0246     0.6586     0.0041     1.2115
    0.9510     0.0232     0.6597     0.0041     1.2119
    0.9610     0.0219     0.6609     0.0041     1.2123
    0.9710     0.0208     0.6622     0.0041     1.2128
    0.9810     0.0198     0.6635     0.0041     1.2132
    0.9910     0.0189     0.6648     0.0041     1.2136
    1.0010     0.0181     0.6662     0.0042     1.2140
    1.0110     0.0174     0.6675     0.0042     1.2144
    1.0210     0.0167     0.6689     0.0042     1.2148
    1.0310     0.0161     0.6702     0.0042     1.2153
    1.0410     0.0156     0.6716     0.0042     1.2157
    1.0511     0.0151     0.6729     0.0042     1.2161
    1.0611     0.0147     0.6742     0.0043     1.2165
    1.0711     0.0143     0.6755     0.0043     1.2170
    1.0811     0.0139     0.6768     0.0043     1.2174
    1.0911     0.0136     0.6780     0.0043     1.2178
    1.1011     0.0133     0.6793     0.0043     1.2182
    1.1111     0.0130     0.6805     0.0043     1.2187
    1.1211     0.0127     0.6817     0.0044     1.2191
    1.1311     0.0125     0.6829     0.0044     1.2196
    1.1411     0.0123     0.6841     0.0044     1.2200
    1.1512     0.0121     0.6852     0.0044     1.2204
    1.1612     0.0119     0.6864     0.0044     1.2209
    1.1712     0.0117     0.6875     0.0045     1.2213
    1.1812     0.0115     0.6886     0.0045     1.2218
    1.1912     0.0114     0.6898     0.0045     1.2222
    1.2012     0.0112     0.6909     0.0045     1.2227
    1.2112     0.0111     0.6919     0.0045     1.2231
    1.2212     0.0109     0.6930     0.0045     1.2236
    1.2312     0.0108     0.6941     0.0046     1.2240
    1.2412     0.0107     0.6951     0.0046     1.2245
    1.2513     0.0106     0.6962     0.0046     1.2249
    1.2613     0.0104     0.6972     0.0046     1.2254
    1.2713     0.0103     0.6982     0.0046     1.2259
    1.2813     0.0102     0.6992     0.0047     1.2263
    1.2913     0.0101     0.7002     0.0047     1.2268
    1.3013     0.0101     0.7012     0.0047     1.2273
    1.3113     0.0100     0.7022     0.0047     1.2277
    1.3213     0.0099     0.7032     0.0047     1.2282
    1.3313     0.0098     0.7042     0.0048     1.2287
    1.3413     0.0097     0.7052     0.0048     1.2292
    1.3514     0.0096     0.7061     0.0048     1.2296
    1.3614     0.0096     0.7071     0.0048     1.2301
    1.3714     0.0095     0.7080     0.0048     1.2306
    1.3814     0.0094     0.7089     0.0049     1.2311
    1.3914     0.0094     0.7099     0.0049     1.2316
    1.4014     0.0093     0.7108     0.0049     1.2321
    1.4114     0.0092     0.7117     0.0049     1.2326
    1.4214     0.0092     0.7126     0.0049     1.2331
    1.4314     0.0091     0.7136     0.0050     1.2336
    1.4414     0.0091     0.7145     0.0050     1.2340
    1.4515     0.0090     0.7154     0.0050     1.2345
    1.4615     0.0090     0.7163     0.0050     1.2351
    1.4715     0.0089     0.7171     0.0051     1.2356
    1.4815     0.0089     0.7180     0.0051     1.2361
    1.4915     0.0088     0.7189     0.0051     1.2366
    1.5015     0.0088     0.7198     0.0051     1.2371
    1.5115     0.0087     0.7206     0.0051     1.2376
    1.5215     0.0087     0.7215     0.0052     1.2381
    1.5315     0.0086     0.7224     0.0052     1.2386
    1.5415     0.0086     0.7232     0.0052     1.2391
    1.5516     0.0085     0.7241     0.0052     1.2397
    1.5616     0.0085     0.7249     0.0053     1.2402
    1.5716     0.0085     0.7258     0.0053     1.2407
    1.5816     0.0084     0.7266     0.0053     1.2413
    1.5916     0.0084     0.7275     0.0053     1.2418
    1.6016     0.0084     0.7283     0.0054     1.2423
    1.6116     0.0083     0.7291     0.0054     1.2429
    1.6216     0.0083     0.7300     0.0054     1.2434
    1.6316     0.0083     0.7308     0.0054     1.2439
    1.6416     0.0082     0.7316     0.0054     1.2445
    1.6517     0.0082     0.7324     0.0055     1.2450
    1.6617     0.0082     0.7332     0.0055     1.2456
    1.6717     0.0081     0.7341     0.0055     1.2461
    1.6817     0.0081     0.7349     0.0055     1.2467
    1.6917     0.0081     0.7357     0.0056     1.2472
    1.7017     0.0081     0.7365     0.0056     1.2478
    1.7117     0.0081     0.7373     0.0056     1.2484
    1.7217     0.0080     0.7381     0.0057     1.2489
    1.7317     0.0080     0.7389     0.0057     1.2495
    1.7417     0.0080     0.7397     0.0057     1.2501
    1.7518     0.0080     0.7405     0.0057     1.2506
    1.7618     0.0080     0.7413     0.0058     1.2512
    1.7718     0.0079     0.7421     0.0058     1.2518
    1.7818     0.0079     0.7428     0.0058     1.2524
    1.7918     0.0079     0.7436     0.0058     1.2529
    1.8018     0.0079     0.7444     0.0059     1.2535
    1.8118     0.0079     0.7452     0.0059     1.2541
    1.8218     0.0079     0.7460     0.0059     1.2547
    1.8318     0.0079     0.7468     0.0059     1.2553
    1.8418     0.0079     0.7476     0.0060     1.2559
    1.8519     0.0078     0.7483     0.0060     1.2565
    1.8619     0.0078     0.7491     0.0060     1.2571
    1.8719     0.0078     0.7499     0.0061     1.2577
    1.8819     0.0078     0.7507     0.0061     1.2583
    1.8919     0.0078     0.7515     0.0061     1.2589
    1.9019     0.0078     0.7522     0.0062     1.2595
    1.9119     0.0078     0.7530     0.0062     1.2601
    1.9219     0.0078     0.7538     0.0062     1.2608
    1.9319     0.0078     0.7546     0.0062     1.2614
    1.9419     0.0078     0.7554     0.0063     1.2620
    1.9520     0.0079     0.7561     0.0063     1.2626
    1.9620     0.0079     0.7569     0.0063     1.2633
    1.9720     0.0079     0.7577     0.0064     1.2639
    1.9820     0.0079     0.7585     0.0064     1.2645
    1.9920     0.0079     0.7593     0.0064     1.2652
    2.0020     0.0079     0.7600     0.0065     1.2658
    2.0120     0.0079     0.7608     0.0065     1.2665
    2.0220     0.0080     0.7616     0.0065     1.2671
    2.0320     0.0080     0.7624     0.0066     1.2678
    2.0420     0.0080     0.7632     0.0066     1.2684
    2.0521     0.0080     0.7640     0.0066     1.2691
    2.0621     0.0081     0.7648     0.0067     1.2698
    2.0721     0.0081     0.7656     0.0067     1.2704
    2.0821     0.0081     0.7664     0.0067     1.2711
    2.0921     0.0082     0.7672     0.0068     1.2718
    2.1021     0.0082     0.7680     0.0068     1.2724
    2.1121     0.0083     0.7688     0.0068     1.2731
    2.1221     0.0083     0.7696     0.0069     1.2738
    2.1321     0.0084     0.7705     0.0069     1.2745
    2.1421     0.0084     0.7713     0.0069     1.2752
    2.1522     0.0085     0.7721     0.0070     1.2759
    2.1622     0.0086     0.7729     0.0070     1.2766
    2.1722     0.0086     0.7738     0.0070     1.2773
    2.1822     0.0087     0.7746     0.0071     1.2780
    2.1922     0.0088     0.7755     0.0071     1.2787
    2.2022     0.0089     0.7764     0.0071     1.2794
    2.2122     0.0090     0.7772     0.0072     1.2801
    2.2222     0.0091     0.7781     0.0072     1.2808
    2.2322     0.0092     0.7790     0.0073     1.2816
    2.2422     0.0093     0.7799     0.0073     1.2823
    2.2523     0.0094     0.7808     0.0073     1.2830
    2.2623     0.0095     0.7817     0.0074     1.2838
    2.2723     0.0097     0.7826     0.0074     1.2845
    2.2823     0.0098     0.7836     0.0075     1.2852
    2.2923     0.0100     0.7845     0.0075     1.2860
    2.3023     0.0102     0.7855     0.0075     1.2867
    2.3123     0.0103     0.7865     0.0076     1.2875
    2.3223     0.0105     0.7875     0.0076     1.2883
    2.3323     0.0108     0.7885     0.0077     1.2890
    2.3423     0.0110     0.7895     0.0077     1.2898
    2.3524     0.0112     0.7906     0.0077     1.2906
    2.3624     0.0115     0.7916     0.0078     1.2913
    2.3724     0.0118     0.7927     0.0078     1.2921
    2.3824     0.0121     0.7938     0.0079     1.2929
    2.3924     0.0124     0.7950     0.0079     1.2937
    2.4024     0.0128     0.7961     0.0080     1.2945
    2.4124     0.0132     0.7973     0.0080     1.2953
    2.4224     0.0136     0.7985     0.0080     1.2961
    2.4324     0.0140     0.7998     0.0081     1.2969
    2.4424     0.0145     0.8010     0.0081     1.2977
    2.4525     0.0151     0.8023     0.0082     1.2985
    2.4625     0.0156     0.8037     0.0082     1.2993
    2.4725     0.0163     0.8050     0.0083     1.3001
    2.4825     0.0170     0.8065     0.0083     1.3010
    2.4925     0.0178     0.8079     0.0084     1.3018
    2.5025     0.0186     0.8094     0.0084     1.3026
    2.5125     0.0195     0.8110     0.0085     1.3035
    2.5225     0.0206     0.8126     0.0085     1.3043
    2.5325     0.0217     0.8142     0.0086     1.3052
    2.5425     0.0230     0.8159     0.0086     1.3060
    2.5526     0.0244     0.8176     0.0086     1.3069
    2.5626     0.0259     0.8194     0.0087     1.3078
    2.5726     0.0277     0.8212     0.0087     1.3086
    2.5826     0.0296     0.8230     0.0088     1.3095
    2.5926     0.0318     0.8249     0.0089     1.3104
    2.6026     0.0343     0.8267     0.0089     1.3113
    2.6126     0.0370     0.8286     0.0090     1.3122
    2.6226     0.0401     0.8303     0.0090     1.3131
    2.6326     0.0436     0.8320     0.0091     1.3140
    2.6426     0.0476     0.8336     0.0091     1.3149
    2.6527     0.0520     0.8349     0.0092     1.3158
    2.6627     0.0569     0.8359     0.0092     1.3167
    2.6727     0.0624     0.8364     0.0093     1.3176
    2.6827     0.0685     0.8363     0.0093     1.3186
    2.6927     0.0750     0.8354     0.0094     1.3195
    2.7027     0.0820     0.8334     0.0094     1.3205
    2.7127     0.0892     0.8301     0.0095     1.3214
    2.7227     0.0964     0.8254     0.0096     1.3224
    2.7327     0.1031     0.8191     0.0096     1.3233
    2.7427     0.1089     0.8111     0.0097     1.3243
    2.7528     0.1132     0.8018     0.0097     1.3252
    2.7628     0.1156     0.7915     0.0098     1.3262
    2.7728     0.1159     0.7808     0.0099     1.3272
    2.7828     0.1139     0.7703     0.0099     1.3282
    2.7928     0.1100     0.7607     0.0100     1.3292
   2.80280    0.10451    0.75243    0.01004    1.33018
   2.81281    0.09797    0.74568    0.01010    1.33119
   2.82282    0.09085    0.74055    0.01016    1.33220
   2.83283    0.08359    0.73693    0.01023    1.33322
   2.84284    0.07649    0.73463    0.01029    1.33424
   2.85285    0.06978    0.73343    0.01036    1.33527
   2.86286    0.06356    0.73311    0.01042    1.33631
   2.87287    0.05789    0.73346    0.01049    1.33736
   2.88288    0.05278    0.73430    0.01055    1.33841
   2.89289    0.04820    0.73550    0.01062    1.33947
   2.90290    0.04411    0.73696    0.01069    1.34053
   2.91291    0.04048    0.73858    0.01076    1.34160
   2.92292    0.03724    0.74030    0.01083    1.34268
   2.93293    0.03437    0.74208    0.01090    1.34376
   2.94294    0.03181    0.74388    0.01097    1.34486
   2.95295    0.02953    0.74568    0.01104    1.34596
   2.96296    0.02749    0.74746    0.01111    1.34706
   2.97297    0.02566    0.74921    0.01119    1.34818
   2.98298    0.02402    0.75091    0.01126    1.34930
   2.99299    0.02255    0.75258    0.01133    1.35043
   3.00300    0.02122    0.75419    0.01141    1.35156
   3.01301    0.02002    0.75576    0.01148    1.35270
   3.02302    0.01893    0.75728    0.01156    1.35386
   3.03303    0.01795    0.75874    0.01164    1.35501
   3.04304    0.01705    0.76016    0.01172    1.35618
   3.05305    0.01622    0.76154    0.01180    1.35735
   3.06306    0.01547    0.76287    0.01188    1.35854
   3.07307    0.01478    0.76416    0.01196    1.35973
   3.08308    0.01415    0.76540    0.01204    1.36092
   3.09309    0.01356    0.76661    0.01212    1.36213
   3.10310    0.01302    0.76778    0.01220    1.36334
   3.11311    0.01253    0.76891    0.01229    1.36457
   3.12312    0.01206    0.77002    0.01237    1.36580
   3.13313    0.01164    0.77108    0.01246    1.36704
   3.14314    0.01124    0.77212    0.01255    1.36829
   3.15315    0.01087    0.77314    0.01263    1.36954
   3.16316    0.01052    0.77412    0.01272    1.37081
   3.17317    0.01020    0.77508    0.01281    1.37208
    3.1832     0.0099     0.7760     0.0129     1.3734
    3.1932     0.0096     0.7769     0.0130     1.3747
    3.2032     0.0093     0.7778     0.0131     1.3760
    3.2132     0.0091     0.7787     0.0132     1.3773
    3.2232     0.0089     0.7795     0.0133     1.3786
    3.2332     0.0086     0.7804     0.0134     1.3799
    3.2432     0.0084     0.7812     0.0135     1.3813
