#                                                                     
#   __   __     _        __  __       ____      U  ___  u             
#   \ \ / / U  /"\  U u |" \/ "| u U | __") u    \/"_ \/              
#    \ V /   \/ _ \/   \| |\/| |/   \|  _ \/     | | | |              
#   U_|"|_u  / ___ \    | |  | |     | |_) | .-,_| |_| |              
#     |_|   /_/   \_\   |_|  |_|     |____/   \_)-\___/               
# .-,//|(_   \\    >>  <<,-,,-.     _|| \\_        \\                 
#  \_) (__) (__)  (__)  (./  \.)   (__) (__)      (__)                
#                                                                     
#                                                                     
# Version 5.1.0 Revision 22208 Hash (prev commit) a391fb0cb           
#                Branch is phys/dichroism                             
#         MPI+OpenMP+SLK+SLEPC+HDF5_MPI_IO Build                      
#                http://www.yambo-code.org                            
#
# Dichroism @ Q(1):  0.999999975E-5   0.00000000      0.00000000    [q->0 direction]
#
# [GEN] GF Energies                               : B3LYP(XC)
# [GEN] Green`s Function                          : Retarded
#
# [GEN] Gauge                                     : Length
# [GEN] [r,Vnl] included                          : yes
#
# DIP band range                                  :   1  20
# DIP band range limits                           :  20   1
# DIP e/h energy range                            :  -1.00000000     -1.00000000    [eV]
# RL vectors in the sum                           :   3695
# [r,Vnl] included                                : yes
# Bands ordered                                   : no
# Direct v evaluation                             : no
# Approach used                                   : G-space v
# Dipoles computed                                : R V P
# Wavefunctions                                   : B3LYP(XC)
#
#
#    E[1] [eV]          Im(CD)             Re(CD)
#
        0.000000          -0.211038E-3       -0.314192E-3
        0.010000          -0.211043E-3       -0.314194E-3
        0.020000          -0.211049E-3       -0.314195E-3
        0.030000          -0.211054E-3       -0.314198E-3
        0.040000          -0.211059E-3       -0.314201E-3
        0.050000          -0.211064E-3       -0.314204E-3
        0.060000          -0.211069E-3       -0.314208E-3
        0.070000          -0.211074E-3       -0.314213E-3
        0.080000          -0.211079E-3       -0.314218E-3
        0.090000          -0.211083E-3       -0.314224E-3
        0.100000          -0.211088E-3       -0.314230E-3
        0.110000          -0.211092E-3       -0.314237E-3
        0.120000          -0.211097E-3       -0.314244E-3
        0.130000          -0.211101E-3       -0.314252E-3
        0.140000          -0.211105E-3       -0.314260E-3
        0.150000          -0.211109E-3       -0.314269E-3
        0.160000          -0.211113E-3       -0.314279E-3
        0.170000          -0.211117E-3       -0.314288E-3
        0.180000          -0.211121E-3       -0.314299E-3
        0.190000          -0.211125E-3       -0.314311E-3
        0.200000          -0.211128E-3       -0.314322E-3
        0.210000          -0.211132E-3       -0.314335E-3
        0.220000          -0.211135E-3       -0.314347E-3
        0.230000          -0.211138E-3       -0.314361E-3
        0.240000          -0.211142E-3       -0.314375E-3
        0.250000          -0.211145E-3       -0.314389E-3
        0.260000          -0.211148E-3       -0.314404E-3
        0.270000          -0.211151E-3       -0.314420E-3
        0.280000          -0.211154E-3       -0.314436E-3
        0.290000          -0.211156E-3       -0.314453E-3
        0.300000          -0.211159E-3       -0.314470E-3
        0.310000          -0.211161E-3       -0.314488E-3
        0.320000          -0.211164E-3       -0.314506E-3
        0.330000          -0.211166E-3       -0.314525E-3
        0.340000          -0.211168E-3       -0.314545E-3
        0.350000          -0.211170E-3       -0.314565E-3
        0.360000          -0.211172E-3       -0.314585E-3
        0.370000          -0.211174E-3       -0.314607E-3
        0.380000          -0.211176E-3       -0.314628E-3
        0.390000          -0.211178E-3       -0.314651E-3
        0.400000          -0.211179E-3       -0.314673E-3
        0.410000          -0.211181E-3       -0.314697E-3
        0.420000          -0.211182E-3       -0.314721E-3
        0.430000          -0.211184E-3       -0.314746E-3
        0.440000          -0.211185E-3       -0.314771E-3
        0.450000          -0.211186E-3       -0.314796E-3
        0.460000          -0.211187E-3       -0.314822E-3
        0.470000          -0.211188E-3       -0.314849E-3
        0.480000          -0.211189E-3       -0.314876E-3
        0.490000          -0.211190E-3       -0.314904E-3
        0.500000          -0.211190E-3       -0.314933E-3
        0.510000          -0.211191E-3       -0.314962E-3
        0.520000          -0.211191E-3       -0.314991E-3
        0.530000          -0.211191E-3       -0.315021E-3
        0.540000          -0.211191E-3       -0.315052E-3
        0.550000          -0.211192E-3       -0.315083E-3
        0.560000          -0.211192E-3       -0.315115E-3
        0.570000          -0.211192E-3       -0.315148E-3
        0.580000          -0.211191E-3       -0.315181E-3
        0.590000          -0.211191E-3       -0.315214E-3
        0.600000          -0.211191E-3       -0.315248E-3
        0.610000          -0.211190E-3       -0.315283E-3
        0.620000          -0.211189E-3       -0.315318E-3
        0.630000          -0.211189E-3       -0.315354E-3
        0.640000          -0.211188E-3       -0.315390E-3
        0.650000          -0.211187E-3       -0.315427E-3
        0.660000          -0.211186E-3       -0.315465E-3
        0.670000          -0.211185E-3       -0.315503E-3
        0.680000          -0.211183E-3       -0.315541E-3
        0.690000          -0.211182E-3       -0.315581E-3
        0.700000          -0.211181E-3       -0.315620E-3
        0.710000          -0.211179E-3       -0.315661E-3
        0.720000          -0.211177E-3       -0.315702E-3
        0.730000          -0.211176E-3       -0.315743E-3
        0.740000          -0.211174E-3       -0.315785E-3
        0.750000          -0.211172E-3       -0.315828E-3
        0.760000          -0.211170E-3       -0.315871E-3
        0.770000          -0.211167E-3       -0.315915E-3
        0.780000          -0.211165E-3       -0.315959E-3
        0.790000          -0.211163E-3       -0.316004E-3
        0.800000          -0.211160E-3       -0.316050E-3
        0.810000          -0.211157E-3       -0.316096E-3
        0.820000          -0.211155E-3       -0.316143E-3
        0.830000          -0.211152E-3       -0.316190E-3
        0.840000          -0.211149E-3       -0.316238E-3
        0.850000          -0.211146E-3       -0.316286E-3
        0.860000          -0.211142E-3       -0.316335E-3
        0.870000          -0.211139E-3       -0.316385E-3
        0.880000          -0.211136E-3       -0.316435E-3
        0.890000          -0.211132E-3       -0.316486E-3
        0.900000          -0.211128E-3       -0.316537E-3
        0.910000          -0.211125E-3       -0.316589E-3
        0.920000          -0.211121E-3       -0.316642E-3
        0.930000          -0.211117E-3       -0.316695E-3
        0.940000          -0.211113E-3       -0.316748E-3
        0.950000          -0.211108E-3       -0.316803E-3
        0.960000          -0.211104E-3       -0.316858E-3
        0.970000          -0.211100E-3       -0.316914E-3
        0.980000          -0.211095E-3       -0.316970E-3
        0.990000          -0.211090E-3       -0.317026E-3
        1.000000          -0.211085E-3       -0.317083E-3
        1.010000          -0.211081E-3       -0.317141E-3
        1.020000          -0.211076E-3       -0.317200E-3
        1.030000          -0.211070E-3       -0.317259E-3
        1.040000          -0.211065E-3       -0.317318E-3
        1.050000          -0.211059E-3       -0.317378E-3
        1.060000          -0.211054E-3       -0.317440E-3
        1.070000          -0.211048E-3       -0.317501E-3
        1.080000          -0.211043E-3       -0.317563E-3
        1.090000          -0.211036E-3       -0.317626E-3
        1.100000          -0.211030E-3       -0.317689E-3
        1.110000          -0.211024E-3       -0.317753E-3
        1.120000          -0.211018E-3       -0.317817E-3
        1.130000          -0.211012E-3       -0.317882E-3
        1.140000          -0.211005E-3       -0.317948E-3
        1.150000          -0.210998E-3       -0.318015E-3
        1.160000          -0.210992E-3       -0.318081E-3
        1.170000          -0.210985E-3       -0.318149E-3
        1.180000          -0.210978E-3       -0.318217E-3
        1.190000          -0.210970E-3       -0.318286E-3
        1.200000          -0.210963E-3       -0.318355E-3
        1.210000          -0.210956E-3       -0.318425E-3
        1.220000          -0.210948E-3       -0.318495E-3
        1.230000          -0.210940E-3       -0.318567E-3
        1.240000          -0.210932E-3       -0.318638E-3
        1.250000          -0.210924E-3       -0.318711E-3
        1.260000          -0.210916E-3       -0.318784E-3
        1.270000          -0.210908E-3       -0.318857E-3
        1.280000          -0.210900E-3       -0.318932E-3
        1.290000          -0.210891E-3       -0.319007E-3
        1.300000          -0.210883E-3       -0.319082E-3
        1.310000          -0.210874E-3       -0.319158E-3
        1.320000          -0.210865E-3       -0.319235E-3
        1.330000          -0.210856E-3       -0.319313E-3
        1.340000          -0.210847E-3       -0.319391E-3
        1.350000          -0.210837E-3       -0.319469E-3
        1.360000          -0.210828E-3       -0.319548E-3
        1.370000          -0.210818E-3       -0.319628E-3
        1.380000          -0.210808E-3       -0.319709E-3
        1.390000          -0.210798E-3       -0.319790E-3
        1.400000          -0.210788E-3       -0.319872E-3
        1.410000          -0.210778E-3       -0.319954E-3
        1.420000          -0.210768E-3       -0.320038E-3
        1.430000          -0.210757E-3       -0.320121E-3
        1.440000          -0.210747E-3       -0.320206E-3
        1.450000          -0.210736E-3       -0.320290E-3
        1.460000          -0.210725E-3       -0.320376E-3
        1.470000          -0.210714E-3       -0.320463E-3
        1.480000          -0.210703E-3       -0.320549E-3
        1.490000          -0.210691E-3       -0.320637E-3
        1.500000          -0.210680E-3       -0.320725E-3
        1.510000          -0.210668E-3       -0.320814E-3
        1.520000          -0.210656E-3       -0.320904E-3
        1.530000          -0.210644E-3       -0.320994E-3
        1.540000          -0.210632E-3       -0.321085E-3
        1.550000          -0.210620E-3       -0.321176E-3
        1.560000          -0.210607E-3       -0.321268E-3
        1.570000          -0.210594E-3       -0.321361E-3
        1.580000          -0.210581E-3       -0.321455E-3
        1.590000          -0.210569E-3       -0.321549E-3
        1.600000          -0.210556E-3       -0.321644E-3
        1.610000          -0.210542E-3       -0.321739E-3
        1.620000          -0.210529E-3       -0.321836E-3
        1.630000          -0.210515E-3       -0.321932E-3
        1.640000          -0.210501E-3       -0.322030E-3
        1.650000          -0.210488E-3       -0.322128E-3
        1.660000          -0.210473E-3       -0.322226E-3
        1.670000          -0.210459E-3       -0.322326E-3
        1.680000          -0.210445E-3       -0.322426E-3
        1.690000          -0.210430E-3       -0.322527E-3
        1.700000          -0.210415E-3       -0.322629E-3
        1.710000          -0.210400E-3       -0.322731E-3
        1.720000          -0.210385E-3       -0.322833E-3
        1.730000          -0.210370E-3       -0.322937E-3
        1.740000          -0.210354E-3       -0.323041E-3
        1.750000          -0.210339E-3       -0.323146E-3
        1.760000          -0.210323E-3       -0.323252E-3
        1.770000          -0.210307E-3       -0.323358E-3
        1.780000          -0.210291E-3       -0.323465E-3
        1.790000          -0.210274E-3       -0.323573E-3
        1.800000          -0.210258E-3       -0.323682E-3
        1.810000          -0.210241E-3       -0.323791E-3
        1.820000          -0.210224E-3       -0.323900E-3
        1.830000          -0.210207E-3       -0.324011E-3
        1.840000          -0.210190E-3       -0.324122E-3
        1.850000          -0.210172E-3       -0.324234E-3
        1.860000          -0.210155E-3       -0.324346E-3
        1.870000          -0.210136E-3       -0.324460E-3
        1.880000          -0.210118E-3       -0.324574E-3
        1.890000          -0.210100E-3       -0.324688E-3
        1.900000          -0.210082E-3       -0.324804E-3
        1.910000          -0.210063E-3       -0.324920E-3
        1.920000          -0.210044E-3       -0.325037E-3
        1.930000          -0.210025E-3       -0.325154E-3
        1.940000          -0.210006E-3       -0.325273E-3
        1.950000          -0.209987E-3       -0.325392E-3
        1.960000          -0.209967E-3       -0.325512E-3
        1.970000          -0.209947E-3       -0.325632E-3
        1.980000          -0.209927E-3       -0.325753E-3
        1.990000          -0.209907E-3       -0.325875E-3
        2.000000          -0.209886E-3       -0.325998E-3
        2.010000          -0.209866E-3       -0.326121E-3
        2.020000          -0.209845E-3       -0.326245E-3
        2.030000          -0.209824E-3       -0.326370E-3
        2.040000          -0.209802E-3       -0.326496E-3
        2.050000          -0.209781E-3       -0.326622E-3
        2.060000          -0.209759E-3       -0.326749E-3
        2.070000          -0.209737E-3       -0.326877E-3
        2.080000          -0.209715E-3       -0.327006E-3
        2.090000          -0.209693E-3       -0.327135E-3
        2.100000          -0.209670E-3       -0.327265E-3
        2.110000          -0.209647E-3       -0.327396E-3
        2.120000          -0.209624E-3       -0.327528E-3
        2.130000          -0.209601E-3       -0.327660E-3
        2.140000          -0.209577E-3       -0.327793E-3
        2.150000          -0.209553E-3       -0.327927E-3
        2.160000          -0.209529E-3       -0.328062E-3
        2.170000          -0.209505E-3       -0.328197E-3
        2.180000          -0.209481E-3       -0.328333E-3
        2.190000          -0.209456E-3       -0.328470E-3
        2.200000          -0.209431E-3       -0.328608E-3
        2.210000          -0.209406E-3       -0.328747E-3
        2.220000          -0.209381E-3       -0.328886E-3
        2.230000          -0.209355E-3       -0.329026E-3
        2.240000          -0.209329E-3       -0.329167E-3
        2.250000          -0.209303E-3       -0.329309E-3
        2.260000          -0.209276E-3       -0.329451E-3
        2.270000          -0.209250E-3       -0.329594E-3
        2.280000          -0.209223E-3       -0.329738E-3
        2.290000          -0.209196E-3       -0.329883E-3
        2.300000          -0.209168E-3       -0.330029E-3
        2.310000          -0.209141E-3       -0.330175E-3
        2.320000          -0.209113E-3       -0.330323E-3
        2.330000          -0.209085E-3       -0.330471E-3
        2.340000          -0.209056E-3       -0.330619E-3
        2.350000          -0.209028E-3       -0.330769E-3
        2.360000          -0.208999E-3       -0.330920E-3
        2.370000          -0.208970E-3       -0.331071E-3
        2.380000          -0.208940E-3       -0.331223E-3
        2.390000          -0.208910E-3       -0.331376E-3
        2.400000          -0.208880E-3       -0.331530E-3
        2.410000          -0.208850E-3       -0.331684E-3
        2.420000          -0.208819E-3       -0.331840E-3
        2.430000          -0.208789E-3       -0.331996E-3
        2.440000          -0.208757E-3       -0.332153E-3
        2.450000          -0.208726E-3       -0.332311E-3
        2.460000          -0.208694E-3       -0.332470E-3
        2.470000          -0.208662E-3       -0.332630E-3
        2.480000          -0.208630E-3       -0.332790E-3
        2.490000          -0.208597E-3       -0.332952E-3
        2.500000          -0.208565E-3       -0.333114E-3
        2.510000          -0.208531E-3       -0.333277E-3
        2.520000          -0.208498E-3       -0.333441E-3
        2.530000          -0.208464E-3       -0.333606E-3
        2.540000          -0.208430E-3       -0.333771E-3
        2.550000          -0.208396E-3       -0.333938E-3
        2.560000          -0.208361E-3       -0.334105E-3
        2.570000          -0.208326E-3       -0.334274E-3
        2.580000          -0.208291E-3       -0.334443E-3
        2.590000          -0.208255E-3       -0.334613E-3
        2.600000          -0.208220E-3       -0.334784E-3
        2.610000          -0.208183E-3       -0.334956E-3
        2.620000          -0.208147E-3       -0.335128E-3
        2.630000          -0.208110E-3       -0.335302E-3
        2.640000          -0.208073E-3       -0.335477E-3
        2.650000          -0.208035E-3       -0.335652E-3
        2.660000          -0.207997E-3       -0.335828E-3
        2.670000          -0.207959E-3       -0.336005E-3
        2.680000          -0.207921E-3       -0.336183E-3
        2.690000          -0.207882E-3       -0.336363E-3
        2.700000          -0.207843E-3       -0.336543E-3
        2.710000          -0.207803E-3       -0.336723E-3
        2.720000          -0.207763E-3       -0.336905E-3
        2.730000          -0.207723E-3       -0.337088E-3
        2.740000          -0.207683E-3       -0.337271E-3
        2.750000          -0.207642E-3       -0.337456E-3
        2.760000          -0.207601E-3       -0.337642E-3
        2.770000          -0.207559E-3       -0.337828E-3
        2.780000          -0.207517E-3       -0.338016E-3
        2.790000          -0.207475E-3       -0.338204E-3
        2.800000          -0.207432E-3       -0.338393E-3
        2.810000          -0.207389E-3       -0.338584E-3
        2.820000          -0.207346E-3       -0.338775E-3
        2.830000          -0.207302E-3       -0.338967E-3
        2.840000          -0.207258E-3       -0.339160E-3
        2.850000          -0.207213E-3       -0.339354E-3
        2.860000          -0.207168E-3       -0.339549E-3
        2.870000          -0.207123E-3       -0.339746E-3
        2.880000          -0.207078E-3       -0.339942E-3
        2.890000          -0.207031E-3       -0.340140E-3
        2.900000          -0.206985E-3       -0.340340E-3
        2.910000          -0.206938E-3       -0.340540E-3
        2.920000          -0.206891E-3       -0.340741E-3
        2.930000          -0.206843E-3       -0.340943E-3
        2.940000          -0.206795E-3       -0.341146E-3
        2.950000          -0.206747E-3       -0.341350E-3
        2.960000          -0.206698E-3       -0.341555E-3
        2.970000          -0.206649E-3       -0.341761E-3
        2.980000          -0.206599E-3       -0.341968E-3
        2.990000          -0.206549E-3       -0.342177E-3
        3.000000          -0.206499E-3       -0.342386E-3
        3.010000          -0.206448E-3       -0.342596E-3
        3.020000          -0.206396E-3       -0.342807E-3
        3.030000          -0.206345E-3       -0.343020E-3
        3.040000          -0.206292E-3       -0.343233E-3
        3.050000          -0.206240E-3       -0.343447E-3
        3.060000          -0.206187E-3       -0.343663E-3
        3.070000          -0.206133E-3       -0.343880E-3
        3.080000          -0.206079E-3       -0.344097E-3
        3.090000          -0.206025E-3       -0.344316E-3
