#                                                           
#  __  __   ________   ___ __ __    _______   ______        
# /_/\/_/\ /_______/\ /__//_//_/\ /_______/\ /_____/\       
# \ \ \ \ \\::: _  \ \\::\| \| \ \\::: _  \ \\:::_ \ \      
#  \:\_\ \ \\::(_)  \ \\:.      \ \\::(_)  \/_\:\ \ \ \     
#   \::::_\/ \:: __  \ \\:.\-/\  \ \\::  _  \ \\:\ \ \ \    
#     \::\ \  \:.\ \  \ \\. \  \  \ \\::(_)  \ \\:\_\ \ \   
#      \__\/   \__\/\__\/ \__\/ \__\/ \_______\/ \_____\/   
#                                                           
#                                                           
#        Version 4.2.0 Revision 14791 Hash a8d1f41          
#                        MPI Build                          
#                http://www.yambo-code.org                  
#
# Absorption @ Q(1) [q->0 direction] :0.5774E-5 0.5774E-5 0.5774E-5
#
#
# - Energies      are  Analyt. E
# - Wavefunctions are Teter 93(XC)
#
# - The Green`s function is Retarded -
# - Using the Length Gauge -
# - [r,Vnl] *is* included -
#
#   BSK|Identifier              :3866
#      |Dimension               :32
#      |Bands                   :7 - 10
#      |Exchange           [res]: yes
#      |Correlation        [res]: yes
#      |Kernel`s coupling       : no
#      |Exchange           [cpl]: no
#      |Correlation        [cpl]: no
#      |W interaction is bare   : no
#      |ALDA kernel in R-space  : no
#      |RL vectors    [exchange]:51
#      |RL vectors [correlation]:51
#      |E/h energy range    [ev]:-1.000000 - -1.000000
#      |Coupling range     [o/o]: 100.0000 -  100.0000
#    W |Interaction is diagonal : no
#      |Matrix size             :51
#      |Bands                   :1 - 60
#      |e/h energy range    [ev]:-1.000000 - -1.000000
#      |Poles              [o/o]: 100.0000
#      |RL vectors in the sum   :3473
#      |[r,Vnl] included        : yes
#      |Field direction         :0.1000E-4  0.000000  0.000000
#      |Coulomb Cutoff          :none
#      |xc-Kernel               :none
#   RIM|RL components      [col]:0
#      |Random points      [col]:0
#
#    E/ev[1]      EPS-Im[2]    EPS-Re[3]    EPSo-Im[4]   EPSo-Re[5]
#
     4.00000      0.22172     13.21905      0.02113      5.75130
     4.01003      0.22555     13.30865      0.02126      5.75980
     4.02005      0.22948     13.39979      0.02139      5.76835
     4.03008      0.23350     13.49253      0.02152      5.77696
     4.04010      0.23764     13.58690      0.02166      5.78561
     4.05013      0.24188     13.68295      0.02179      5.79432
     4.06015      0.24623     13.78072      0.02192      5.80309
     4.07018      0.25070     13.88025      0.02206      5.81190
     4.08020      0.25529     13.98160      0.02220      5.82078
     4.09023      0.26001     14.08481      0.02233      5.82971
     4.10025      0.26485     14.18993      0.02247      5.83869
     4.11028      0.26983     14.29702      0.02261      5.84773
     4.12030      0.27495     14.40612      0.02275      5.85682
     4.13033      0.28021     14.51730      0.02290      5.86597
     4.14035      0.28562     14.63062      0.02304      5.87518
     4.15038      0.29119     14.74613      0.02318      5.88445
     4.16040      0.29692     14.86391      0.02333      5.89377
     4.17043      0.30282     14.98401      0.02347      5.90316
     4.18045      0.30889     15.10650      0.02362      5.91260
     4.19048      0.31514     15.23145      0.02377      5.92210
     4.20050      0.32159     15.35895      0.02392      5.93166
     4.21053      0.32823     15.48907      0.02407      5.94128
     4.22055      0.33507     15.62188      0.02423      5.95097
     4.23058      0.34213     15.75747      0.02438      5.96071
     4.24060      0.34941     15.89593      0.02453      5.97052
     4.25063      0.35692     16.03734      0.02469      5.98038
     4.26065      0.36468     16.18181      0.02485      5.99031
     4.27068      0.37268     16.32942      0.02501      6.00031
     4.28070      0.38095     16.48030      0.02517      6.01037
     4.29073      0.38950     16.63453      0.02533      6.02049
     4.30075      0.39833     16.79224      0.02549      6.03068
     4.31078      0.40746     16.95353      0.02566      6.04094
     4.32080      0.41691     17.11854      0.02582      6.05126
     4.33083      0.42668     17.28740      0.02599      6.06164
     4.34085      0.43680     17.46021      0.02616      6.07210
     4.35088      0.44728     17.63716      0.02633      6.08262
     4.36090      0.45814     17.81836      0.02650      6.09321
     4.37093      0.46940     18.00398      0.02667      6.10387
     4.38095      0.48107     18.19419      0.02685      6.11460
     4.39098      0.49318     18.38914      0.02702      6.12540
     4.40100      0.50574     18.58902      0.02720      6.13627
     4.41103      0.51879     18.79400      0.02738      6.14721
     4.42105      0.53235     19.00431      0.02756      6.15823
     4.43108      0.54644     19.22013      0.02774      6.16932
     4.44110      0.56109     19.44169      0.02793      6.18048
     4.45113      0.57634     19.66922      0.02811      6.19171
     4.46115      0.59221     19.90296      0.02830      6.20302
     4.47118      0.60874     20.14316      0.02849      6.21440
     4.48120      0.62596     20.39010      0.02868      6.22586
     4.49123      0.64393     20.64405      0.02887      6.23740
     4.50125      0.66267     20.90534      0.02906      6.24901
     4.51128      0.68224     21.17426      0.02926      6.26071
     4.52130      0.70268     21.45116      0.02946      6.27248
     4.53133      0.72405     21.73639      0.02966      6.28433
     4.54135      0.74640     22.03034      0.02986      6.29626
     4.55138      0.76980     22.33341      0.03006      6.30827
     4.56140      0.79431     22.64601      0.03026      6.32036
     4.57143      0.82000     22.96862      0.03047      6.33254
     4.58145      0.84695     23.30172      0.03068      6.34480
     4.59148      0.87525     23.64582      0.03089      6.35714
     4.60150      0.90498     24.00148      0.03110      6.36957
     4.61153      0.93625     24.36928      0.03132      6.38208
     4.62155      0.96916     24.74984      0.03153      6.39468
     4.63158      1.00383     25.14385      0.03175      6.40737
     4.64160      1.04038     25.55202      0.03197      6.42014
     4.65163      1.07896     25.97512      0.03219      6.43300
     4.66165      1.11972     26.41401      0.03242      6.44596
     4.67168      1.16283     26.86955      0.03264      6.45900
     4.68170      1.20847     27.34272      0.03287      6.47213
     4.69173      1.25684     27.83456      0.03310      6.48536
     4.70175      1.30817     28.34617      0.03334      6.49868
     4.71178      1.36270     28.87877      0.03357      6.51209
     4.72180      1.42072     29.43370      0.03381      6.52560
     4.73183      1.48253     30.01238      0.03405      6.53921
     4.74185      1.54847     30.61634      0.03429      6.55291
     4.75188      1.61893     31.24730      0.03454      6.56671
     4.76190      1.69437     31.90709      0.03478      6.58060
     4.77193      1.77527     32.59772      0.03503      6.59460
     4.78196      1.86227     33.32141      0.03529      6.60870
     4.79198      1.95607     34.08049      0.03554      6.62290
     4.80200      2.05761     34.87754      0.03580      6.63720
     4.81203      2.16795     35.71493      0.03606      6.65160
    4.822        2.288        36.59       0.3632E-1     6.666   
    4.832        2.416        37.52       0.3659E-1     6.681   
    4.842        2.551        38.49       0.3685E-1     6.695   
    4.852        2.696        39.53       0.3712E-1     6.710   
    4.862        2.855        40.63       0.3740E-1     6.725   
    4.872        3.030        41.79       0.3767E-1     6.740   
    4.882        3.223        43.03       0.3795E-1     6.755   
    4.892        3.436        44.35       0.3823E-1     6.771   
    4.902        3.670        45.75       0.3852E-1     6.786   
    4.912        3.930        47.25       0.3880E-1     6.802   
    4.922        4.218        48.86       0.3910E-1     6.817   
    4.932        4.540        50.58       0.3939E-1     6.833   
    4.942        4.899        52.44       0.3969E-1     6.849   
    4.952        5.303        54.44       0.3999E-1     6.865   
    4.962        5.758        56.61       0.4029E-1     6.881   
    4.972        6.274        58.97       0.4059E-1     6.897   
    4.982        6.863        61.53       0.4090E-1     6.913   
    4.992        7.539        64.34       0.4122E-1     6.930   
    5.003        8.318        67.41       0.4153E-1     6.946   
    5.013        9.225        70.81       0.4185E-1     6.963   
    5.023        10.29        74.57       0.4217E-1     6.980   
    5.033        11.54        78.75       0.4250E-1     6.997   
    5.043        13.04        83.44       0.4283E-1     7.014   
    5.053        14.84        88.72       0.4316E-1     7.031   
    5.063        17.04        94.70       0.4350E-1     7.049   
    5.073        19.77        101.5       0.4384E-1     7.066   
    5.083        23.19        109.4       0.4419E-1     7.084   
    5.093        27.56        118.6       0.4454E-1     7.102   
    5.103        33.26        129.3       0.4489E-1     7.120   
    5.113        40.87        142.0       0.4525E-1     7.138   
    5.123        51.31        157.1       0.4561E-1     7.156   
    5.133        66.09        175.1       0.4597E-1     7.174   
    5.143        87.77        196.7       0.4634E-1     7.193   
    5.153        120.8        221.4       0.4671E-1     7.211   
    5.163        173.0        246.7       0.4709E-1     7.230   
    5.173        256.1        261.4       0.4747E-1     7.249   
    5.183        377.5        232.8       0.4786E-1     7.268   
    5.193        496.5        106.4       0.4825E-1     7.288   
    5.203        500.0       -93.40       0.4864E-1     7.307   
    5.213        383.7       -225.0       0.4904E-1     7.327   
    5.223        260.9       -256.9       0.4945E-1     7.346   
    5.233        176.1       -243.2       0.4985E-1     7.366   
    5.243        122.7       -218.1       0.5027E-1     7.386   
    5.253        89.00       -193.2       0.5069E-1     7.406   
    5.263        66.91       -171.6       0.5111E-1     7.427   
    5.273        51.88       -153.3       0.5154E-1     7.447   
    5.283        41.28       -138.1       0.5197E-1     7.468   
    5.293        33.56       -125.3       0.5241E-1     7.489   
    5.303        27.79       -114.5       0.5286E-1     7.510   
    5.313        23.37       -105.3       0.5331E-1     7.532   
    5.323        19.91       -97.39       0.5376E-1     7.553   
    5.333        17.16       -90.50       0.5422E-1     7.575   
    5.343        14.93       -84.48       0.5469E-1     7.596   
    5.353        13.11       -79.17       0.5516E-1     7.618   
    5.363        11.60       -74.46       0.5564E-1     7.641   
    5.373        10.34       -70.26       0.5613E-1     7.663   
    5.383        9.270       -66.48       0.5662E-1     7.686   
    5.393        8.357       -63.07       0.5711E-1     7.708   
    5.404        7.573       -59.98       0.5762E-1     7.731   
     5.41353      6.89282    -57.16187      0.05812      7.75468
     5.42356      6.30038    -54.58661      0.05864      7.77809
     5.43358      5.78099    -52.22303      0.05916      7.80170
     5.44361      5.32325    -50.04648      0.05969      7.82552
     5.45363      4.91791    -48.03573      0.06023      7.84956
     5.46366      4.55743    -46.17300      0.06077      7.87382
     5.47368      4.23534    -44.44314      0.06132      7.89829
     5.48371      3.94562    -42.83268      0.06188      7.92299
     5.49373      3.68362    -41.32890      0.06244      7.94791
     5.50376      3.44650    -39.92111      0.06302      7.97305
     5.51378      3.23161    -38.60071      0.06360      7.99843
     5.52381      3.03629    -37.36008      0.06418      8.02405
     5.53383      2.85822    -36.19236      0.06478      8.04990
     5.54386      2.69538    -35.09139      0.06538      8.07599
     5.55388      2.54607    -34.05158      0.06599      8.10232
     5.56391      2.40881    -33.06803      0.06661      8.12890
     5.57394      2.28235    -32.13633      0.06724      8.15573
     5.58396      2.16558    -31.25249      0.06788      8.18282
     5.59398      2.05753    -30.41298      0.06853      8.21016
     5.60401      1.95736    -29.61449      0.06918      8.23776
     5.61404      1.86431    -28.85413      0.06985      8.26563
     5.62406      1.77772    -28.12925      0.07052      8.29376
     5.63409      1.69702    -27.43743      0.07120      8.32217
     5.64411      1.62168    -26.77646      0.07189      8.35085
     5.65414      1.55124    -26.14435      0.07260      8.37982
     5.66416      1.48528    -25.53925      0.07331      8.40906
     5.67419      1.42342    -24.95946      0.07403      8.43860
     5.68421      1.36535    -24.40347      0.07477      8.46842
     5.69424      1.31075    -23.86980      0.07551      8.49854
     5.70426      1.25935    -23.35715      0.07626      8.52896
     5.71429      1.21091    -22.86433      0.07703      8.55969
     5.72431      1.16520    -22.39019      0.07781      8.59072
     5.73434      1.12203    -21.93373      0.07860      8.62207
     5.74436      1.08120    -21.49394      0.07940      8.65374
     5.75439      1.04256    -21.06995      0.08021      8.68573
     5.76441      1.00595    -20.66091      0.08103      8.71805
     5.77444      0.97123    -20.26607      0.08187      8.75070
     5.78446      0.93826    -19.88468      0.08272      8.78369
     5.79449      0.90695    -19.51609      0.08358      8.81702
     5.80451      0.87717    -19.15966      0.08446      8.85071
     5.81454      0.84883    -18.81480      0.08535      8.88474
     5.82456      0.82184    -18.48096      0.08625      8.91914
     5.83459      0.79611    -18.15761      0.08717      8.95390
     5.84461      0.77157    -17.84430      0.08810      8.98903
     5.85464      0.74814    -17.54053      0.08905      9.02453
     5.86466      0.72575    -17.24589      0.09001      9.06042
     5.87469      0.70436    -16.95998      0.09099      9.09670
     5.88471      0.68389    -16.68243      0.09198      9.13337
     5.89474      0.66430    -16.41285      0.09299      9.17044
     5.90476      0.64554    -16.15092      0.09402      9.20793
     5.91479      0.62755    -15.89632      0.09506      9.24582
     5.92481      0.61031    -15.64874      0.09612      9.28414
     5.93484      0.59376    -15.40791      0.09720      9.32288
     5.94486      0.57788    -15.17355      0.09829      9.36207
     5.95489      0.56262    -14.94541      0.09940      9.40168
     5.96491      0.54795    -14.72324      0.10053      9.44176
     5.97494      0.53385    -14.50681      0.10169      9.48229
     5.98496      0.52029    -14.29590      0.10286      9.52328
     5.99499      0.50723    -14.09032      0.10405      9.56474
     6.00501      0.49465    -13.88985      0.10526      9.60669
     6.01504      0.48254    -13.69431      0.10649      9.64913
     6.02506      0.47086    -13.50352      0.10774      9.69207
     6.03509      0.45960    -13.31732      0.10902      9.73551
     6.04511      0.44874    -13.13553      0.11032      9.77946
     6.05514      0.43826    -12.95800      0.11164      9.82395
     6.06516      0.42813    -12.78459      0.11298      9.86896
     6.07519      0.41835    -12.61516      0.11435      9.91452
     6.08521      0.40891    -12.44958      0.11574      9.96063
     6.09524      0.39977    -12.28770      0.11716     10.00731
     6.10526      0.39094    -12.12942      0.11861     10.05456
     6.11529      0.38239    -11.97460      0.12008     10.10239
     6.12531      0.37412    -11.82315      0.12158     10.15082
     6.13534      0.36612    -11.67496      0.12310     10.19985
     6.14536      0.35837    -11.52992      0.12466     10.24950
     6.15539      0.35086    -11.38792      0.12624     10.29978
     6.16541      0.34358    -11.24888      0.12786     10.35071
     6.17544      0.33652    -11.11271      0.12950     10.40228
     6.18546      0.32968    -10.97932      0.13118     10.45451
     6.19549      0.32304    -10.84862      0.13289     10.50744
     6.20551      0.31660    -10.72054      0.13463     10.56104
     6.21554      0.31035    -10.59499      0.13641     10.61536
     6.22556      0.30429    -10.47191      0.13822     10.67039
     6.23559      0.29839    -10.35122      0.14007     10.72616
     6.24561      0.29267    -10.23285      0.14196     10.78267
     6.25564      0.28711    -10.11674      0.14388     10.83995
     6.26566      0.28170    -10.00283      0.14584     10.89801
     6.27569      0.27644     -9.89105      0.14785     10.95686
     6.28571      0.27133     -9.78134      0.14989     11.01652
     6.29574      0.26636     -9.67365      0.15198     11.07700
     6.30576      0.26152     -9.56792      0.15411     11.13834
     6.31579      0.25682     -9.46411      0.15629     11.20053
     6.32581      0.25223     -9.36215      0.15851     11.26361
     6.33584      0.24777     -9.26200      0.16078     11.32758
     6.34586      0.24342     -9.16362      0.16310     11.39248
     6.35589      0.23919     -9.06694      0.16547     11.45831
     6.36591      0.23507     -8.97195      0.16789     11.52510
     6.37594      0.23105     -8.87858      0.17036     11.59288
     6.38596      0.22713     -8.78680      0.17289     11.66165
     6.39599      0.22331     -8.69657      0.17548     11.73145
     6.40602      0.21958     -8.60785      0.17812     11.80229
     6.41604      0.21595     -8.52061      0.18082     11.87421
     6.42607      0.21240     -8.43480      0.18359     11.94722
     6.43609      0.20894     -8.35039      0.18642     12.02135
     6.44612      0.20557     -8.26735      0.18932     12.09663
     6.45614      0.20227     -8.18565      0.19228     12.17308
     6.46617      0.19905     -8.10525      0.19532     12.25073
     6.47619      0.19591     -8.02613      0.19842     12.32961
     6.48622      0.19284     -7.94825      0.20160     12.40975
     6.49624      0.18984     -7.87158      0.20486     12.49118
     6.50627      0.18691     -7.79609      0.20820     12.57393
     6.51629      0.18405     -7.72177      0.21162     12.65803
     6.52632      0.18125     -7.64859      0.21513     12.74353
     6.53634      0.17851     -7.57651      0.21872     12.83044
     6.54637      0.17584     -7.50551      0.22241     12.91881
     6.55639      0.17322     -7.43557      0.22619     13.00867
     6.56642      0.17066     -7.36667      0.23007     13.10006
     6.57644      0.16816     -7.29878      0.23404     13.19303
     6.58647      0.16571     -7.23189      0.23813     13.28761
     6.59649      0.16332     -7.16596      0.24232     13.38384
     6.60652      0.16097     -7.10099      0.24662     13.48177
     6.61654      0.15868     -7.03694      0.25104     13.58146
     6.62657      0.15643     -6.97380      0.25558     13.68292
     6.63659      0.15423     -6.91156      0.26024     13.78623
     6.64662      0.15207     -6.85018      0.26504     13.89144
     6.65664      0.14996     -6.78966      0.26996     13.99859
     6.66667      0.14789     -6.72998      0.27503     14.10774
     6.67669      0.14587     -6.67111      0.28024     14.21894
     6.68672      0.14388     -6.61305      0.28561     14.33227
     6.69674      0.14194     -6.55578      0.29113     14.44777
     6.70677      0.14003     -6.49927      0.29681     14.56550
     6.71679      0.13816     -6.44353      0.30266     14.68555
     6.72682      0.13633     -6.38852      0.30869     14.80797
     6.73684      0.13454     -6.33424      0.31490     14.93284
