#                                                           
# :::   :::   :::     ::::    ::::  :::::::::   ::::::::    
# :+:   :+: :+: :+:   +:+:+: :+:+:+ :+:    :+: :+:    :+:   
#  +:+ +:+ +:+   +:+  +:+ +:+:+ +:+ +:+    +:+ +:+    +:+   
#   +#++: +#++:++#++: +#+  +:+  +#+ +#++:++#+  +#+    +:+   
#    +#+  +#+     +#+ +#+       +#+ +#+    +#+ +#+    +#+   
#    #+#  #+#     #+# #+#       #+# #+#    #+# #+#    #+#   
#    ###  ###     ### ###       ### #########   ########    
#                                                           
#                                                           
#        Version 4.3.0 Revision 15341 Hash c146fb2          
#                      MPI+SLK Build                        
#                http://www.yambo-code.org                  
#
# Absorption @ Q(1) [q->0 direction] :0.1000E-4  0.000     0.000   
#
#
#
# - The Green`s function is Resonant -
# - Using the Length Gauge -
# - [r,Vnl] *is* included -
#
#
#    E/ev[1]      EPS-Im[2]    EPS-Re[3]
#
   -10.00       0.8290E-2     2.282   
   -9.990       0.8301E-2     2.283   
   -9.980       0.8312E-2     2.283   
   -9.970       0.8322E-2     2.284   
   -9.960       0.8333E-2     2.285   
   -9.950       0.8344E-2     2.286   
   -9.940       0.8355E-2     2.287   
   -9.930       0.8366E-2     2.288   
   -9.920       0.8377E-2     2.288   
   -9.910       0.8388E-2     2.289   
   -9.900       0.8398E-2     2.290   
   -9.890       0.8409E-2     2.291   
   -9.880       0.8420E-2     2.292   
   -9.870       0.8431E-2     2.293   
   -9.860       0.8442E-2     2.293   
   -9.850       0.8453E-2     2.294   
   -9.840       0.8464E-2     2.295   
   -9.830       0.8476E-2     2.296   
   -9.820       0.8487E-2     2.297   
   -9.810       0.8498E-2     2.298   
   -9.800       0.8509E-2     2.299   
   -9.790       0.8520E-2     2.299   
   -9.780       0.8531E-2     2.300   
   -9.770       0.8543E-2     2.301   
   -9.760       0.8554E-2     2.302   
   -9.750       0.8565E-2     2.303   
   -9.740       0.8576E-2     2.304   
   -9.730       0.8588E-2     2.305   
   -9.720       0.8599E-2     2.305   
   -9.710       0.8610E-2     2.306   
   -9.700       0.8622E-2     2.307   
   -9.690       0.8633E-2     2.308   
   -9.680       0.8644E-2     2.309   
   -9.670       0.8656E-2     2.310   
   -9.660       0.8667E-2     2.311   
   -9.650       0.8679E-2     2.311   
   -9.640       0.8690E-2     2.312   
   -9.630       0.8702E-2     2.313   
   -9.620       0.8713E-2     2.314   
   -9.610       0.8725E-2     2.315   
   -9.600       0.8737E-2     2.316   
   -9.590       0.8748E-2     2.317   
   -9.580       0.8760E-2     2.318   
   -9.570       0.8772E-2     2.318   
   -9.560       0.8783E-2     2.319   
   -9.550       0.8795E-2     2.320   
   -9.540       0.8807E-2     2.321   
   -9.530       0.8818E-2     2.322   
   -9.520       0.8830E-2     2.323   
   -9.510       0.8842E-2     2.324   
   -9.500       0.8854E-2     2.325   
   -9.490       0.8866E-2     2.325   
   -9.480       0.8878E-2     2.326   
   -9.470       0.8889E-2     2.327   
   -9.460       0.8901E-2     2.328   
   -9.450       0.8913E-2     2.329   
   -9.440       0.8925E-2     2.330   
   -9.430       0.8937E-2     2.331   
   -9.420       0.8949E-2     2.332   
   -9.410       0.8961E-2     2.333   
   -9.400       0.8974E-2     2.334   
   -9.390       0.8986E-2     2.334   
   -9.380       0.8998E-2     2.335   
   -9.370       0.9010E-2     2.336   
   -9.360       0.9022E-2     2.337   
   -9.350       0.9034E-2     2.338   
   -9.340       0.9046E-2     2.339   
   -9.330       0.9059E-2     2.340   
   -9.320       0.9071E-2     2.341   
   -9.310       0.9083E-2     2.342   
   -9.300       0.9096E-2     2.343   
   -9.290       0.9108E-2     2.343   
   -9.280       0.9120E-2     2.344   
   -9.270       0.9133E-2     2.345   
   -9.260       0.9145E-2     2.346   
   -9.250       0.9158E-2     2.347   
   -9.240       0.9170E-2     2.348   
   -9.230       0.9183E-2     2.349   
   -9.220       0.9195E-2     2.350   
   -9.210       0.9208E-2     2.351   
     -9.2000       0.0092       2.3517
     -9.1900       0.0092       2.3526
     -9.1800       0.0092       2.3535
     -9.1700       0.0093       2.3545
     -9.1600       0.0093       2.3554
     -9.1500       0.0093       2.3563
     -9.1400       0.0093       2.3573
     -9.1300       0.0093       2.3582
     -9.1200       0.0093       2.3591
     -9.1100       0.0093       2.3601
     -9.1000       0.0093       2.3610
     -9.0900       0.0094       2.3619
     -9.0800       0.0094       2.3629
     -9.0700       0.0094       2.3638
     -9.0600       0.0094       2.3647
     -9.0500       0.0094       2.3657
     -9.0400       0.0094       2.3666
     -9.0300       0.0094       2.3676
     -9.0200       0.0095       2.3685
     -9.0100       0.0095       2.3694
     -9.0000       0.0095       2.3704
     -8.9900       0.0095       2.3713
     -8.9800       0.0095       2.3723
     -8.9700       0.0095       2.3732
     -8.9600       0.0095       2.3742
     -8.9500       0.0095       2.3751
     -8.9400       0.0096       2.3761
     -8.9300       0.0096       2.3771
     -8.9200       0.0096       2.3780
     -8.9100       0.0096       2.3790
     -8.9000       0.0096       2.3799
     -8.8900       0.0096       2.3809
     -8.8800       0.0096       2.3819
     -8.8700       0.0097       2.3828
     -8.8600       0.0097       2.3838
     -8.8500       0.0097       2.3848
     -8.8400       0.0097       2.3857
     -8.8300       0.0097       2.3867
     -8.8200       0.0097       2.3877
     -8.8100       0.0097       2.3886
     -8.8000       0.0097       2.3896
     -8.7900       0.0098       2.3906
     -8.7800       0.0098       2.3916
     -8.7700       0.0098       2.3925
     -8.7600       0.0098       2.3935
     -8.7500       0.0098       2.3945
     -8.7400       0.0098       2.3955
     -8.7300       0.0098       2.3965
     -8.7200       0.0099       2.3975
     -8.7100       0.0099       2.3984
     -8.7000       0.0099       2.3994
     -8.6900       0.0099       2.4004
     -8.6800       0.0099       2.4014
     -8.6700       0.0099       2.4024
     -8.6600       0.0099       2.4034
     -8.6500       0.0100       2.4044
     -8.6400       0.0100       2.4054
     -8.6300       0.0100       2.4064
     -8.6200       0.0100       2.4074
    -8.61000      0.01001      2.40838
    -8.60000      0.01002      2.40938
    -8.59000      0.01004      2.41038
    -8.58000      0.01005      2.41139
    -8.57000      0.01007      2.41239
    -8.56000      0.01008      2.41340
    -8.55000      0.01010      2.41441
    -8.54000      0.01011      2.41542
    -8.53000      0.01013      2.41643
    -8.52000      0.01014      2.41744
    -8.51000      0.01015      2.41846
    -8.50000      0.01017      2.41948
    -8.49000      0.01018      2.42049
    -8.48000      0.01020      2.42151
    -8.47000      0.01021      2.42253
    -8.46000      0.01023      2.42355
    -8.45000      0.01024      2.42458
    -8.44000      0.01026      2.42560
    -8.43000      0.01027      2.42663
    -8.42000      0.01029      2.42766
    -8.41000      0.01030      2.42869
    -8.40000      0.01032      2.42972
    -8.39000      0.01033      2.43075
    -8.38000      0.01035      2.43178
    -8.37000      0.01036      2.43282
    -8.36000      0.01038      2.43385
    -8.35000      0.01039      2.43489
    -8.34000      0.01041      2.43593
    -8.33000      0.01042      2.43697
    -8.32000      0.01044      2.43802
    -8.31000      0.01045      2.43906
    -8.30000      0.01047      2.44011
    -8.29000      0.01048      2.44115
    -8.28000      0.01050      2.44220
    -8.27000      0.01051      2.44325
    -8.26000      0.01053      2.44430
    -8.25000      0.01054      2.44536
    -8.24000      0.01056      2.44641
    -8.23000      0.01057      2.44747
    -8.22000      0.01059      2.44853
    -8.21000      0.01061      2.44959
    -8.20000      0.01062      2.45065
    -8.19000      0.01064      2.45171
    -8.18000      0.01065      2.45278
    -8.17000      0.01067      2.45384
    -8.16000      0.01068      2.45491
    -8.15000      0.01070      2.45598
    -8.14000      0.01071      2.45705
    -8.13000      0.01073      2.45812
    -8.12000      0.01075      2.45919
    -8.11000      0.01076      2.46027
    -8.10000      0.01078      2.46135
    -8.09000      0.01079      2.46242
    -8.08000      0.01081      2.46350
    -8.07000      0.01083      2.46459
    -8.06000      0.01084      2.46567
    -8.05000      0.01086      2.46675
    -8.04000      0.01087      2.46784
    -8.03000      0.01089      2.46893
    -8.02000      0.01091      2.47002
    -8.01000      0.01092      2.47111
    -8.00000      0.01094      2.47220
    -7.99000      0.01096      2.47330
    -7.98000      0.01097      2.47439
    -7.97000      0.01099      2.47549
    -7.96000      0.01100      2.47659
    -7.95000      0.01102      2.47769
    -7.94000      0.01104      2.47880
    -7.93000      0.01105      2.47990
    -7.92000      0.01107      2.48101
    -7.91000      0.01109      2.48211
    -7.90000      0.01110      2.48322
    -7.89000      0.01112      2.48433
    -7.88000      0.01114      2.48545
    -7.87000      0.01115      2.48656
    -7.86000      0.01117      2.48768
    -7.85000      0.01119      2.48880
    -7.84000      0.01120      2.48991
    -7.83000      0.01122      2.49103
    -7.82000      0.01124      2.49216
    -7.81000      0.01125      2.49328
    -7.80000      0.01127      2.49441
    -7.79000      0.01129      2.49554
    -7.78000      0.01131      2.49667
    -7.77000      0.01132      2.49780
    -7.76000      0.01134      2.49893
    -7.75000      0.01136      2.50007
    -7.74000      0.01137      2.50120
    -7.73000      0.01139      2.50234
    -7.72000      0.01141      2.50348
    -7.71000      0.01143      2.50462
    -7.70000      0.01144      2.50576
    -7.69000      0.01146      2.50691
    -7.68000      0.01148      2.50806
    -7.67000      0.01150      2.50921
    -7.66000      0.01151      2.51036
    -7.65000      0.01153      2.51151
    -7.64000      0.01155      2.51266
    -7.63000      0.01157      2.51382
    -7.62000      0.01158      2.51498
    -7.61000      0.01160      2.51613
    -7.60000      0.01162      2.51730
    -7.59000      0.01164      2.51846
    -7.58000      0.01166      2.51962
    -7.57000      0.01167      2.52079
    -7.56000      0.01169      2.52196
    -7.55000      0.01171      2.52313
    -7.54000      0.01173      2.52430
    -7.53000      0.01175      2.52547
    -7.52000      0.01176      2.52665
    -7.51000      0.01178      2.52782
    -7.50000      0.01180      2.52900
    -7.49000      0.01182      2.53018
    -7.48000      0.01184      2.53137
    -7.47000      0.01186      2.53255
    -7.46000      0.01187      2.53374
    -7.45000      0.01189      2.53493
    -7.44000      0.01191      2.53612
    -7.43000      0.01193      2.53731
    -7.42000      0.01195      2.53850
    -7.41000      0.01197      2.53970
    -7.40000      0.01198      2.54089
    -7.39000      0.01200      2.54209
    -7.38000      0.01202      2.54329
    -7.37000      0.01204      2.54450
    -7.36000      0.01206      2.54570
    -7.35000      0.01208      2.54691
    -7.34000      0.01210      2.54812
    -7.33000      0.01212      2.54933
    -7.32000      0.01214      2.55054
    -7.31000      0.01215      2.55175
    -7.30000      0.01217      2.55297
    -7.29000      0.01219      2.55419
    -7.28000      0.01221      2.55541
    -7.27000      0.01223      2.55663
    -7.26000      0.01225      2.55786
    -7.25000      0.01227      2.55908
    -7.24000      0.01229      2.56031
    -7.23000      0.01231      2.56154
    -7.22000      0.01233      2.56277
    -7.21000      0.01235      2.56400
    -7.20000      0.01237      2.56524
    -7.19000      0.01239      2.56648
    -7.18000      0.01241      2.56772
    -7.17000      0.01243      2.56896
    -7.16000      0.01245      2.57020
    -7.15000      0.01247      2.57145
    -7.14000      0.01248      2.57269
    -7.13000      0.01250      2.57394
    -7.12000      0.01252      2.57519
    -7.11000      0.01254      2.57645
    -7.10000      0.01256      2.57770
    -7.09000      0.01258      2.57896
    -7.08000      0.01260      2.58022
    -7.07000      0.01262      2.58148
    -7.06000      0.01265      2.58274
    -7.05000      0.01267      2.58401
    -7.04000      0.01269      2.58528
    -7.03000      0.01271      2.58655
    -7.02000      0.01273      2.58782
    -7.01000      0.01275      2.58909
    -7.00000      0.01277      2.59037
    -6.99000      0.01279      2.59164
    -6.98000      0.01281      2.59292
    -6.97000      0.01283      2.59421
    -6.96000      0.01285      2.59549
    -6.95000      0.01287      2.59678
    -6.94000      0.01289      2.59806
    -6.93000      0.01291      2.59935
    -6.92000      0.01293      2.60065
    -6.91000      0.01295      2.60194
    -6.90000      0.01297      2.60324
    -6.89000      0.01300      2.60453
    -6.88000      0.01302      2.60583
    -6.87000      0.01304      2.60714
    -6.86000      0.01306      2.60844
    -6.85000      0.01308      2.60975
    -6.84000      0.01310      2.61106
    -6.83000      0.01312      2.61237
    -6.82000      0.01314      2.61368
    -6.81000      0.01317      2.61500
    -6.80000      0.01319      2.61632
    -6.79000      0.01321      2.61764
    -6.78000      0.01323      2.61896
    -6.77000      0.01325      2.62028
    -6.76000      0.01327      2.62161
    -6.75000      0.01330      2.62294
    -6.74000      0.01332      2.62427
    -6.73000      0.01334      2.62560
    -6.72000      0.01336      2.62693
    -6.71000      0.01338      2.62827
    -6.70000      0.01341      2.62961
    -6.69000      0.01343      2.63095
    -6.68000      0.01345      2.63229
    -6.67000      0.01347      2.63364
    -6.66000      0.01349      2.63499
    -6.65000      0.01352      2.63634
    -6.64000      0.01354      2.63769
    -6.63000      0.01356      2.63905
    -6.62000      0.01358      2.64040
    -6.61000      0.01361      2.64176
    -6.60000      0.01363      2.64313
    -6.59000      0.01365      2.64449
    -6.58000      0.01367      2.64585
    -6.57000      0.01370      2.64722
    -6.56000      0.01372      2.64859
    -6.55000      0.01374      2.64997
    -6.54000      0.01377      2.65134
    -6.53000      0.01379      2.65272
    -6.52000      0.01381      2.65410
    -6.51000      0.01384      2.65548
    -6.50000      0.01386      2.65687
    -6.49000      0.01388      2.65825
    -6.48000      0.01391      2.65964
    -6.47000      0.01393      2.66103
    -6.46000      0.01395      2.66243
    -6.45000      0.01398      2.66382
    -6.44000      0.01400      2.66522
    -6.43000      0.01402      2.66662
    -6.42000      0.01405      2.66803
    -6.41000      0.01407      2.66943
    -6.40000      0.01409      2.67084
    -6.39000      0.01412      2.67225
    -6.38000      0.01414      2.67366
    -6.37000      0.01417      2.67508
    -6.36000      0.01419      2.67650
    -6.35000      0.01421      2.67792
    -6.34000      0.01424      2.67934
    -6.33000      0.01426      2.68076
    -6.32000      0.01429      2.68219
    -6.31000      0.01431      2.68362
    -6.30000      0.01433      2.68505
    -6.29000      0.01436      2.68649
    -6.28000      0.01438      2.68792
    -6.27000      0.01441      2.68936
    -6.26000      0.01443      2.69080
    -6.25000      0.01446      2.69225
    -6.24000      0.01448      2.69370
    -6.23000      0.01451      2.69514
    -6.22000      0.01453      2.69660
    -6.21000      0.01456      2.69805
    -6.20000      0.01458      2.69951
    -6.19000      0.01461      2.70097
    -6.18000      0.01463      2.70243
    -6.17000      0.01466      2.70389
    -6.16000      0.01468      2.70536
    -6.15000      0.01471      2.70683
    -6.14000      0.01473      2.70830
    -6.13000      0.01476      2.70977
    -6.12000      0.01478      2.71125
    -6.11000      0.01481      2.71273
    -6.10000      0.01484      2.71421
    -6.09000      0.01486      2.71570
    -6.08000      0.01489      2.71718
    -6.07000      0.01491      2.71867
    -6.06000      0.01494      2.72017
    -6.05000      0.01496      2.72166
    -6.04000      0.01499      2.72316
    -6.03000      0.01502      2.72466
    -6.02000      0.01504      2.72616
    -6.01000      0.01507      2.72767
    -6.00000      0.01510      2.72918
    -5.99000      0.01512      2.73069
    -5.98000      0.01515      2.73220
    -5.97000      0.01518      2.73372
    -5.96000      0.01520      2.73523
    -5.95000      0.01523      2.73676
    -5.94000      0.01526      2.73828
    -5.93000      0.01528      2.73981
    -5.92000      0.01531      2.74134
    -5.91000      0.01534      2.74287
    -5.90000      0.01536      2.74440
    -5.89000      0.01539      2.74594
    -5.88000      0.01542      2.74748
    -5.87000      0.01544      2.74902
    -5.86000      0.01547      2.75057
    -5.85000      0.01550      2.75212
    -5.84000      0.01553      2.75367
    -5.83000      0.01555      2.75522
    -5.82000      0.01558      2.75678
    -5.81000      0.01561      2.75834
    -5.80000      0.01564      2.75990
    -5.79000      0.01567      2.76146
    -5.78000      0.01569      2.76303
    -5.77000      0.01572      2.76460
    -5.76000      0.01575      2.76618
    -5.75000      0.01578      2.76775
    -5.74000      0.01581      2.76933
    -5.73000      0.01583      2.77091
    -5.72000      0.01586      2.77250
    -5.71000      0.01589      2.77409
    -5.70000      0.01592      2.77568
    -5.69000      0.01595      2.77727
    -5.68000      0.01598      2.77886
    -5.67000      0.01601      2.78046
    -5.66000      0.01603      2.78206
    -5.65000      0.01606      2.78367
    -5.64000      0.01609      2.78528
    -5.63000      0.01612      2.78689
    -5.62000      0.01615      2.78850
    -5.61000      0.01618      2.79012
    -5.60000      0.01621      2.79174
    -5.59000      0.01624      2.79336
    -5.58000      0.01627      2.79498
    -5.57000      0.01630      2.79661
    -5.56000      0.01633      2.79824
    -5.55000      0.01636      2.79988
    -5.54000      0.01639      2.80151
    -5.53000      0.01642      2.80315
    -5.52000      0.01645      2.80480
    -5.51000      0.01648      2.80644
    -5.50000      0.01651      2.80809
    -5.49000      0.01654      2.80974
    -5.48000      0.01657      2.81140
    -5.47000      0.01660      2.81306
    -5.46000      0.01663      2.81472
    -5.45000      0.01666      2.81638
    -5.44000      0.01669      2.81805
    -5.43000      0.01672      2.81972
    -5.42000      0.01675      2.82139
    -5.41000      0.01678      2.82307
    -5.40000      0.01681      2.82475
    -5.39000      0.01684      2.82643
    -5.38000      0.01688      2.82812
    -5.37000      0.01691      2.82981
    -5.36000      0.01694      2.83150
    -5.35000      0.01697      2.83319
    -5.34000      0.01700      2.83489
    -5.33000      0.01703      2.83659
    -5.32000      0.01706      2.83830
    -5.31000      0.01710      2.84000
    -5.30000      0.01713      2.84171
    -5.29000      0.01716      2.84343
    -5.28000      0.01719      2.84515
    -5.27000      0.01722      2.84687
    -5.26000      0.01726      2.84859
    -5.25000      0.01729      2.85032
    -5.24000      0.01732      2.85205
    -5.23000      0.01735      2.85378
    -5.22000      0.01739      2.85552
    -5.21000      0.01742      2.85726
    -5.20000      0.01745      2.85900
    -5.19000      0.01748      2.86075
    -5.18000      0.01752      2.86250
    -5.17000      0.01755      2.86425
    -5.16000      0.01758      2.86601
    -5.15000      0.01762      2.86776
