#                                                           
# :::   :::   :::     ::::    ::::  :::::::::   ::::::::    
# :+:   :+: :+: :+:   +:+:+: :+:+:+ :+:    :+: :+:    :+:   
#  +:+ +:+ +:+   +:+  +:+ +:+:+ +:+ +:+    +:+ +:+    +:+   
#   +#++: +#++:++#++: +#+  +:+  +#+ +#++:++#+  +#+    +:+   
#    +#+  +#+     +#+ +#+       +#+ +#+    +#+ +#+    +#+   
#    #+#  #+#     #+# #+#       #+# #+#    #+# #+#    #+#   
#    ###  ###     ### ###       ### #########   ########    
#                                                           
#                                                           
#        Version 4.3.0 Revision 15338 Hash 3cdf17c          
#                      MPI+SLK Build                        
#                http://www.yambo-code.org                  
#
# Absorption @ Q(3) [iku] : 0.0000000  0.0000000  0.4999999
#
#
# - Energies      are Teter 93(XC)
# - Wavefunctions are Teter 93(XC)
#
# - The Green`s function is Resonant -
#
#    E/ev[1]       EPS-Im[2]     EPS-Re[3]
#
   -10.000       0.15385E-2     1.2910   
   -9.9900       0.15402E-2     1.2911   
   -9.9800       0.15419E-2     1.2913   
   -9.9700       0.15436E-2     1.2914   
   -9.9600       0.15453E-2     1.2916   
   -9.9500       0.15470E-2     1.2917   
   -9.9400       0.15487E-2     1.2919   
   -9.9300       0.15504E-2     1.2920   
   -9.9200       0.15521E-2     1.2922   
   -9.9100       0.15539E-2     1.2923   
   -9.9000       0.15556E-2     1.2925   
   -9.8900       0.15573E-2     1.2927   
   -9.8800       0.15591E-2     1.2928   
   -9.8700       0.15608E-2     1.2930   
   -9.8600       0.15625E-2     1.2931   
   -9.8500       0.15643E-2     1.2933   
   -9.8400       0.15660E-2     1.2934   
   -9.8300       0.15678E-2     1.2936   
   -9.8200       0.15695E-2     1.2938   
   -9.8100       0.15713E-2     1.2939   
   -9.8000       0.15730E-2     1.2941   
   -9.7900       0.15748E-2     1.2942   
   -9.7800       0.15765E-2     1.2944   
   -9.7700       0.15783E-2     1.2945   
   -9.7600       0.15801E-2     1.2947   
   -9.7500       0.15818E-2     1.2949   
   -9.7400       0.15836E-2     1.2950   
   -9.7300       0.15854E-2     1.2952   
   -9.7200       0.15872E-2     1.2953   
   -9.7100       0.15890E-2     1.2955   
   -9.7000       0.15907E-2     1.2956   
   -9.6900       0.15925E-2     1.2958   
   -9.6800       0.15943E-2     1.2960   
   -9.6700       0.15961E-2     1.2961   
   -9.6600       0.15979E-2     1.2963   
   -9.6500       0.15997E-2     1.2964   
   -9.6400       0.16015E-2     1.2966   
   -9.6300       0.16033E-2     1.2968   
   -9.6200       0.16052E-2     1.2969   
   -9.6100       0.16070E-2     1.2971   
   -9.6000       0.16088E-2     1.2972   
   -9.5900       0.16106E-2     1.2974   
   -9.5800       0.16124E-2     1.2976   
   -9.5700       0.16143E-2     1.2977   
   -9.5600       0.16161E-2     1.2979   
   -9.5500       0.16179E-2     1.2981   
   -9.5400       0.16198E-2     1.2982   
   -9.5300       0.16216E-2     1.2984   
   -9.5200       0.16235E-2     1.2985   
   -9.5100       0.16253E-2     1.2987   
   -9.5000       0.16272E-2     1.2989   
   -9.4900       0.16290E-2     1.2990   
   -9.4800       0.16309E-2     1.2992   
   -9.4700       0.16327E-2     1.2994   
   -9.4600       0.16346E-2     1.2995   
   -9.4500       0.16365E-2     1.2997   
   -9.4400       0.16383E-2     1.2998   
   -9.4300       0.16402E-2     1.3000   
   -9.4200       0.16421E-2     1.3002   
   -9.4100       0.16440E-2     1.3003   
   -9.4000       0.16458E-2     1.3005   
   -9.3900       0.16477E-2     1.3007   
   -9.3800       0.16496E-2     1.3008   
   -9.3700       0.16515E-2     1.3010   
   -9.3600       0.16534E-2     1.3012   
   -9.3500       0.16553E-2     1.3013   
   -9.3400       0.16572E-2     1.3015   
   -9.3300       0.16591E-2     1.3017   
   -9.3200       0.16610E-2     1.3018   
   -9.3100       0.16630E-2     1.3020   
   -9.3000       0.16649E-2     1.3022   
   -9.2900       0.16668E-2     1.3023   
   -9.2800       0.16687E-2     1.3025   
   -9.2700       0.16707E-2     1.3027   
   -9.2600       0.16726E-2     1.3028   
   -9.2500       0.16745E-2     1.3030   
   -9.2400       0.16765E-2     1.3032   
   -9.2300       0.16784E-2     1.3033   
   -9.2200       0.16804E-2     1.3035   
   -9.2100       0.16823E-2     1.3037   
   -9.2000       0.16843E-2     1.3038   
   -9.1900       0.16862E-2     1.3040   
   -9.1800       0.16882E-2     1.3042   
   -9.1700       0.16901E-2     1.3043   
   -9.1600       0.16921E-2     1.3045   
   -9.1500       0.16941E-2     1.3047   
   -9.1400       0.16961E-2     1.3048   
   -9.1300       0.16980E-2     1.3050   
   -9.1200       0.17000E-2     1.3052   
   -9.1100       0.17020E-2     1.3054   
   -9.1000       0.17040E-2     1.3055   
   -9.0900       0.17060E-2     1.3057   
   -9.0800       0.17080E-2     1.3059   
   -9.0700       0.17100E-2     1.3060   
   -9.0600       0.17120E-2     1.3062   
   -9.0500       0.17140E-2     1.3064   
   -9.0400       0.17160E-2     1.3066   
   -9.0300       0.17180E-2     1.3067   
   -9.0200       0.17201E-2     1.3069   
   -9.0100       0.17221E-2     1.3071   
   -9.0000       0.17241E-2     1.3072   
   -8.9900       0.17261E-2     1.3074   
   -8.9800       0.17282E-2     1.3076   
   -8.9700       0.17302E-2     1.3078   
   -8.9600       0.17323E-2     1.3079   
   -8.9500       0.17343E-2     1.3081   
   -8.9400       0.17363E-2     1.3083   
   -8.9300       0.17384E-2     1.3085   
   -8.9200       0.17405E-2     1.3086   
   -8.9100       0.17425E-2     1.3088   
   -8.9000       0.17446E-2     1.3090   
   -8.8900       0.17467E-2     1.3091   
   -8.8800       0.17487E-2     1.3093   
   -8.8700       0.17508E-2     1.3095   
   -8.8600       0.17529E-2     1.3097   
   -8.8500       0.17550E-2     1.3098   
   -8.8400       0.17571E-2     1.3100   
   -8.8300       0.17591E-2     1.3102   
   -8.8200       0.17612E-2     1.3104   
   -8.8100       0.17633E-2     1.3106   
   -8.8000       0.17654E-2     1.3107   
   -8.7900       0.17676E-2     1.3109   
   -8.7800       0.17697E-2     1.3111   
   -8.7700       0.17718E-2     1.3113   
   -8.7600       0.17739E-2     1.3114   
   -8.7500       0.17760E-2     1.3116   
   -8.7400       0.17782E-2     1.3118   
   -8.7300       0.17803E-2     1.3120   
   -8.7200       0.17824E-2     1.3121   
   -8.7100       0.17846E-2     1.3123   
   -8.7000       0.17867E-2     1.3125   
   -8.6900       0.17889E-2     1.3127   
   -8.6800       0.17910E-2     1.3129   
   -8.6700       0.17932E-2     1.3130   
   -8.6600       0.17953E-2     1.3132   
   -8.6500       0.17975E-2     1.3134   
   -8.6400       0.17997E-2     1.3136   
   -8.6300       0.18018E-2     1.3138   
   -8.6200       0.18040E-2     1.3139   
   -8.6100       0.18062E-2     1.3141   
   -8.6000       0.18084E-2     1.3143   
   -8.5900       0.18106E-2     1.3145   
   -8.5800       0.18127E-2     1.3147   
   -8.5700       0.18149E-2     1.3148   
   -8.5600       0.18171E-2     1.3150   
   -8.5500       0.18194E-2     1.3152   
   -8.5400       0.18216E-2     1.3154   
   -8.5300       0.18238E-2     1.3156   
   -8.5200       0.18260E-2     1.3158   
   -8.5100       0.18282E-2     1.3159   
   -8.5000       0.18304E-2     1.3161   
   -8.4900       0.18327E-2     1.3163   
   -8.4800       0.18349E-2     1.3165   
   -8.4700       0.18371E-2     1.3167   
   -8.4600       0.18394E-2     1.3169   
   -8.4500       0.18416E-2     1.3170   
   -8.4400       0.18439E-2     1.3172   
   -8.4300       0.18462E-2     1.3174   
   -8.4200       0.18484E-2     1.3176   
   -8.4100       0.18507E-2     1.3178   
   -8.4000       0.18529E-2     1.3180   
   -8.3900       0.18552E-2     1.3181   
   -8.3800       0.18575E-2     1.3183   
   -8.3700       0.18598E-2     1.3185   
   -8.3600       0.18621E-2     1.3187   
   -8.3500       0.18644E-2     1.3189   
   -8.3400       0.18667E-2     1.3191   
   -8.3300       0.18690E-2     1.3193   
   -8.3200       0.18713E-2     1.3195   
   -8.3100       0.18736E-2     1.3196   
   -8.3000       0.18759E-2     1.3198   
   -8.2900       0.18782E-2     1.3200   
   -8.2800       0.18805E-2     1.3202   
   -8.2700       0.18829E-2     1.3204   
   -8.2600       0.18852E-2     1.3206   
   -8.2500       0.18875E-2     1.3208   
   -8.2400       0.18899E-2     1.3210   
   -8.2300       0.18922E-2     1.3211   
   -8.2200       0.18946E-2     1.3213   
   -8.2100       0.18969E-2     1.3215   
   -8.2000       0.18993E-2     1.3217   
   -8.1900       0.19016E-2     1.3219   
   -8.1800       0.19040E-2     1.3221   
   -8.1700       0.19064E-2     1.3223   
   -8.1600       0.19088E-2     1.3225   
   -8.1500       0.19112E-2     1.3227   
   -8.1400       0.19135E-2     1.3229   
   -8.1300       0.19159E-2     1.3230   
   -8.1200       0.19183E-2     1.3232   
   -8.1100       0.19207E-2     1.3234   
   -8.1000       0.19231E-2     1.3236   
   -8.0900       0.19256E-2     1.3238   
   -8.0800       0.19280E-2     1.3240   
   -8.0700       0.19304E-2     1.3242   
   -8.0600       0.19328E-2     1.3244   
   -8.0500       0.19352E-2     1.3246   
   -8.0400       0.19377E-2     1.3248   
   -8.0300       0.19401E-2     1.3250   
   -8.0200       0.19426E-2     1.3252   
   -8.0100       0.19450E-2     1.3254   
   -8.0000       0.19475E-2     1.3256   
   -7.9900       0.19499E-2     1.3258   
   -7.9800       0.19524E-2     1.3259   
   -7.9700       0.19549E-2     1.3261   
   -7.9600       0.19573E-2     1.3263   
   -7.9500       0.19598E-2     1.3265   
   -7.9400       0.19623E-2     1.3267   
   -7.9300       0.19648E-2     1.3269   
   -7.9200       0.19673E-2     1.3271   
   -7.9100       0.19698E-2     1.3273   
   -7.9000       0.19723E-2     1.3275   
   -7.8900       0.19748E-2     1.3277   
   -7.8800       0.19773E-2     1.3279   
   -7.8700       0.19798E-2     1.3281   
   -7.8600       0.19824E-2     1.3283   
   -7.8500       0.19849E-2     1.3285   
   -7.8400       0.19874E-2     1.3287   
   -7.8300       0.19900E-2     1.3289   
   -7.8200       0.19925E-2     1.3291   
   -7.8100       0.19951E-2     1.3293   
   -7.8000       0.19976E-2     1.3295   
   -7.7900       0.20002E-2     1.3297   
   -7.7800       0.20027E-2     1.3299   
   -7.7700       0.20053E-2     1.3301   
   -7.7600       0.20079E-2     1.3303   
   -7.7500       0.20105E-2     1.3305   
   -7.7400       0.20131E-2     1.3307   
   -7.7300       0.20157E-2     1.3309   
   -7.7200       0.20182E-2     1.3311   
   -7.7100       0.20209E-2     1.3313   
   -7.7000       0.20235E-2     1.3315   
   -7.6900       0.20261E-2     1.3317   
   -7.6800       0.20287E-2     1.3319   
   -7.6700       0.20313E-2     1.3321   
   -7.6600       0.20339E-2     1.3323   
   -7.6500       0.20366E-2     1.3325   
   -7.6400       0.20392E-2     1.3327   
   -7.6300       0.20419E-2     1.3329   
   -7.6200       0.20445E-2     1.3331   
   -7.6100       0.20472E-2     1.3333   
   -7.6000       0.20498E-2     1.3336   
   -7.5900       0.20525E-2     1.3338   
   -7.5800       0.20552E-2     1.3340   
   -7.5700       0.20579E-2     1.3342   
   -7.5600       0.20605E-2     1.3344   
   -7.5500       0.20632E-2     1.3346   
   -7.5400       0.20659E-2     1.3348   
   -7.5300       0.20686E-2     1.3350   
   -7.5200       0.20713E-2     1.3352   
   -7.5100       0.20740E-2     1.3354   
   -7.5000       0.20768E-2     1.3356   
   -7.4900       0.20795E-2     1.3358   
   -7.4800       0.20822E-2     1.3360   
   -7.4700       0.20849E-2     1.3362   
   -7.4600       0.20877E-2     1.3364   
   -7.4500       0.20904E-2     1.3367   
   -7.4400       0.20932E-2     1.3369   
   -7.4300       0.20959E-2     1.3371   
   -7.4200       0.20987E-2     1.3373   
   -7.4100       0.21015E-2     1.3375   
   -7.4000       0.21042E-2     1.3377   
   -7.3900       0.21070E-2     1.3379   
   -7.3800       0.21098E-2     1.3381   
   -7.3700       0.21126E-2     1.3383   
   -7.3600       0.21154E-2     1.3385   
   -7.3500       0.21182E-2     1.3388   
   -7.3400       0.21210E-2     1.3390   
   -7.3300       0.21238E-2     1.3392   
   -7.3200       0.21266E-2     1.3394   
   -7.3100       0.21295E-2     1.3396   
   -7.3000       0.21323E-2     1.3398   
   -7.2900       0.21351E-2     1.3400   
   -7.2800       0.21380E-2     1.3402   
   -7.2700       0.21408E-2     1.3405   
   -7.2600       0.21437E-2     1.3407   
   -7.2500       0.21466E-2     1.3409   
   -7.2400       0.21494E-2     1.3411   
   -7.2300       0.21523E-2     1.3413   
   -7.2200       0.21552E-2     1.3415   
   -7.2100       0.21581E-2     1.3418   
   -7.2000       0.21610E-2     1.3420   
   -7.1900       0.21639E-2     1.3422   
   -7.1800       0.21668E-2     1.3424   
   -7.1700       0.21697E-2     1.3426   
   -7.1600       0.21726E-2     1.3428   
   -7.1500       0.21755E-2     1.3431   
   -7.1400       0.21784E-2     1.3433   
   -7.1300       0.21814E-2     1.3435   
   -7.1200       0.21843E-2     1.3437   
   -7.1100       0.21873E-2     1.3439   
   -7.1000       0.21902E-2     1.3441   
   -7.0900       0.21932E-2     1.3444   
   -7.0800       0.21962E-2     1.3446   
   -7.0700       0.21991E-2     1.3448   
   -7.0600       0.22021E-2     1.3450   
   -7.0500       0.22051E-2     1.3452   
   -7.0400       0.22081E-2     1.3455   
   -7.0300       0.22111E-2     1.3457   
   -7.0200       0.22141E-2     1.3459   
   -7.0100       0.22171E-2     1.3461   
   -7.0000       0.22201E-2     1.3463   
   -6.9900       0.22232E-2     1.3466   
   -6.9800       0.22262E-2     1.3468   
   -6.9700       0.22292E-2     1.3470   
   -6.9600       0.22323E-2     1.3472   
   -6.9500       0.22353E-2     1.3475   
   -6.9400       0.22384E-2     1.3477   
   -6.9300       0.22415E-2     1.3479   
   -6.9200       0.22445E-2     1.3481   
   -6.9100       0.22476E-2     1.3484   
   -6.9000       0.22507E-2     1.3486   
   -6.8900       0.22538E-2     1.3488   
   -6.8800       0.22569E-2     1.3490   
   -6.8700       0.22600E-2     1.3493   
   -6.8600       0.22631E-2     1.3495   
   -6.8500       0.22662E-2     1.3497   
   -6.8400       0.22694E-2     1.3499   
   -6.8300       0.22725E-2     1.3502   
   -6.8200       0.22756E-2     1.3504   
   -6.8100       0.22788E-2     1.3506   
   -6.8000       0.22819E-2     1.3508   
   -6.7900       0.22851E-2     1.3511   
   -6.7800       0.22883E-2     1.3513   
   -6.7700       0.22914E-2     1.3515   
   -6.7600       0.22946E-2     1.3518   
   -6.7500       0.22978E-2     1.3520   
   -6.7400       0.23010E-2     1.3522   
   -6.7300       0.23042E-2     1.3525   
   -6.7200       0.23074E-2     1.3527   
   -6.7100       0.23106E-2     1.3529   
   -6.7000       0.23139E-2     1.3531   
   -6.6900       0.23171E-2     1.3534   
   -6.6800       0.23203E-2     1.3536   
   -6.6700       0.23236E-2     1.3538   
   -6.6600       0.23268E-2     1.3541   
   -6.6500       0.23301E-2     1.3543   
   -6.6400       0.23334E-2     1.3545   
   -6.6300       0.23366E-2     1.3548   
   -6.6200       0.23399E-2     1.3550   
   -6.6100       0.23432E-2     1.3552   
   -6.6000       0.23465E-2     1.3555   
   -6.5900       0.23498E-2     1.3557   
   -6.5800       0.23531E-2     1.3559   
   -6.5700       0.23564E-2     1.3562   
   -6.5600       0.23598E-2     1.3564   
   -6.5500       0.23631E-2     1.3567   
   -6.5400       0.23664E-2     1.3569   
   -6.5300       0.23698E-2     1.3571   
   -6.5200       0.23732E-2     1.3574   
   -6.5100       0.23765E-2     1.3576   
   -6.5000       0.23799E-2     1.3578   
   -6.4900       0.23833E-2     1.3581   
   -6.4800       0.23867E-2     1.3583   
   -6.4700       0.23901E-2     1.3586   
   -6.4600       0.23935E-2     1.3588   
   -6.4500       0.23969E-2     1.3590   
   -6.4400       0.24003E-2     1.3593   
   -6.4300       0.24037E-2     1.3595   
   -6.4200       0.24071E-2     1.3598   
   -6.4100       0.24106E-2     1.3600   
   -6.4000       0.24140E-2     1.3602   
   -6.3900       0.24175E-2     1.3605   
   -6.3800       0.24210E-2     1.3607   
   -6.3700       0.24244E-2     1.3610   
   -6.3600       0.24279E-2     1.3612   
   -6.3500       0.24314E-2     1.3614   
   -6.3400       0.24349E-2     1.3617   
   -6.3300       0.24384E-2     1.3619   
   -6.3200       0.24419E-2     1.3622   
   -6.3100       0.24454E-2     1.3624   
   -6.3000       0.24490E-2     1.3627   
   -6.2900       0.24525E-2     1.3629   
   -6.2800       0.24560E-2     1.3632   
   -6.2700       0.24596E-2     1.3634   
   -6.2600       0.24632E-2     1.3637   
   -6.2500       0.24667E-2     1.3639   
   -6.2400       0.24703E-2     1.3641   
   -6.2300       0.24739E-2     1.3644   
   -6.2200       0.24775E-2     1.3646   
   -6.2100       0.24811E-2     1.3649   
   -6.2000       0.24847E-2     1.3651   
   -6.1900       0.24883E-2     1.3654   
   -6.1800       0.24920E-2     1.3656   
   -6.1700       0.24956E-2     1.3659   
   -6.1600       0.24992E-2     1.3661   
   -6.1500       0.25029E-2     1.3664   
   -6.1400       0.25066E-2     1.3666   
   -6.1300       0.25102E-2     1.3669   
   -6.1200       0.25139E-2     1.3671   
   -6.1100       0.25176E-2     1.3674   
   -6.1000       0.25213E-2     1.3676   
   -6.0900       0.25250E-2     1.3679   
   -6.0800       0.25287E-2     1.3681   
   -6.0700       0.25324E-2     1.3684   
   -6.0600       0.25362E-2     1.3686   
   -6.0500       0.25399E-2     1.3689   
   -6.0400       0.25436E-2     1.3692   
   -6.0300       0.25474E-2     1.3694   
   -6.0200       0.25512E-2     1.3697   
   -6.0100       0.25549E-2     1.3699   
   -6.0000       0.25587E-2     1.3702   
   -5.9900       0.25625E-2     1.3704   
   -5.9800       0.25663E-2     1.3707   
   -5.9700       0.25701E-2     1.3709   
   -5.9600       0.25740E-2     1.3712   
   -5.9500       0.25778E-2     1.3715   
   -5.9400       0.25816E-2     1.3717   
   -5.9300       0.25855E-2     1.3720   
   -5.9200       0.25893E-2     1.3722   
   -5.9100       0.25932E-2     1.3725   
   -5.9000       0.25971E-2     1.3728   
   -5.8900       0.26010E-2     1.3730   
   -5.8800       0.26049E-2     1.3733   
   -5.8700       0.26088E-2     1.3735   
   -5.8600       0.26127E-2     1.3738   
   -5.8500       0.26166E-2     1.3741   
   -5.8400       0.26205E-2     1.3743   
   -5.8300       0.26245E-2     1.3746   
   -5.8200       0.26284E-2     1.3748   
   -5.8100       0.26324E-2     1.3751   
   -5.8000       0.26363E-2     1.3754   
   -5.7900       0.26403E-2     1.3756   
   -5.7800       0.26443E-2     1.3759   
   -5.7700       0.26483E-2     1.3762   
   -5.7600       0.26523E-2     1.3764   
   -5.7500       0.26563E-2     1.3767   
   -5.7400       0.26604E-2     1.3770   
   -5.7300       0.26644E-2     1.3772   
   -5.7200       0.26684E-2     1.3775   
   -5.7100       0.26725E-2     1.3778   
   -5.7000       0.26766E-2     1.3780   
   -5.6900       0.26806E-2     1.3783   
   -5.6800       0.26847E-2     1.3786   
   -5.6700       0.26888E-2     1.3788   
   -5.6600       0.26929E-2     1.3791   
   -5.6500       0.26970E-2     1.3794   
   -5.6400       0.27012E-2     1.3796   
   -5.6300       0.27053E-2     1.3799   
   -5.6200       0.27095E-2     1.3802   
   -5.6100       0.27136E-2     1.3805   
   -5.6000       0.27178E-2     1.3807   
   -5.5900       0.27220E-2     1.3810   
   -5.5800       0.27261E-2     1.3813   
   -5.5700       0.27303E-2     1.3815   
   -5.5600       0.27346E-2     1.3818   
   -5.5500       0.27388E-2     1.3821   
   -5.5400       0.27430E-2     1.3824   
   -5.5300       0.27472E-2     1.3826   
   -5.5200       0.27515E-2     1.3829   
   -5.5100       0.27557E-2     1.3832   
   -5.5000       0.27600E-2     1.3835   
