#                                                           
#  **    **    **     ****     ****  ******     *******     
# //**  **    ****   /**/**   **/** /*////**   **/////**    
#  //****    **//**  /**//** ** /** /*   /**  **     //**   
#   //**    **  //** /** //***  /** /******  /**      /**   
#    /**   **********/**  //*   /** /*//// **/**      /**   
#    /**  /**//////**/**   /    /** /*    /**//**     **    
#    /**  /**     /**/**        /** /*******  //*******     
#    //   //      // //         //  ///////    ///////      
#                                                           
#        Version 4.3.0 Revision 15338 Hash 3cdf17c          
#                      MPI+SLK Build                        
#                http://www.yambo-code.org                  
#
# Absorption @ Q(3) [iku] : 0.000000  0.000000  0.500000
#
#
#
# - The Green`s function is Resonant -
#
#
#    E/ev[1]      EPS-Im[2]    EPS-Re[3]
#
   -10.00       0.1538E-2     1.291   
   -9.990       0.1540E-2     1.291   
   -9.980       0.1542E-2     1.291   
   -9.970       0.1544E-2     1.291   
   -9.960       0.1545E-2     1.292   
   -9.950       0.1547E-2     1.292   
   -9.940       0.1549E-2     1.292   
   -9.930       0.1550E-2     1.292   
   -9.920       0.1552E-2     1.292   
   -9.910       0.1554E-2     1.292   
   -9.900       0.1556E-2     1.293   
   -9.890       0.1557E-2     1.293   
   -9.880       0.1559E-2     1.293   
   -9.870       0.1561E-2     1.293   
   -9.860       0.1563E-2     1.293   
   -9.850       0.1564E-2     1.293   
   -9.840       0.1566E-2     1.293   
   -9.830       0.1568E-2     1.294   
   -9.820       0.1570E-2     1.294   
   -9.810       0.1571E-2     1.294   
   -9.800       0.1573E-2     1.294   
   -9.790       0.1575E-2     1.294   
   -9.780       0.1577E-2     1.294   
   -9.770       0.1578E-2     1.295   
   -9.760       0.1580E-2     1.295   
   -9.750       0.1582E-2     1.295   
   -9.740       0.1584E-2     1.295   
   -9.730       0.1585E-2     1.295   
   -9.720       0.1587E-2     1.295   
   -9.710       0.1589E-2     1.295   
   -9.700       0.1591E-2     1.296   
   -9.690       0.1593E-2     1.296   
   -9.680       0.1594E-2     1.296   
   -9.670       0.1596E-2     1.296   
   -9.660       0.1598E-2     1.296   
   -9.650       0.1600E-2     1.296   
   -9.640       0.1602E-2     1.297   
   -9.630       0.1603E-2     1.297   
   -9.620       0.1605E-2     1.297   
   -9.610       0.1607E-2     1.297   
   -9.600       0.1609E-2     1.297   
   -9.590       0.1611E-2     1.297   
   -9.580       0.1612E-2     1.298   
   -9.570       0.1614E-2     1.298   
   -9.560       0.1616E-2     1.298   
   -9.550       0.1618E-2     1.298   
   -9.540       0.1620E-2     1.298   
   -9.530       0.1622E-2     1.298   
   -9.520       0.1623E-2     1.299   
   -9.510       0.1625E-2     1.299   
   -9.500       0.1627E-2     1.299   
   -9.490       0.1629E-2     1.299   
   -9.480       0.1631E-2     1.299   
   -9.470       0.1633E-2     1.299   
   -9.460       0.1635E-2     1.300   
   -9.450       0.1636E-2     1.300   
   -9.440       0.1638E-2     1.300   
   -9.430       0.1640E-2     1.300   
   -9.420       0.1642E-2     1.300   
   -9.410       0.1644E-2     1.300   
   -9.400       0.1646E-2     1.301   
   -9.390       0.1648E-2     1.301   
   -9.380       0.1650E-2     1.301   
   -9.370       0.1652E-2     1.301   
   -9.360       0.1653E-2     1.301   
   -9.350       0.1655E-2     1.301   
   -9.340       0.1657E-2     1.301   
   -9.330       0.1659E-2     1.302   
   -9.320       0.1661E-2     1.302   
   -9.310       0.1663E-2     1.302   
   -9.300       0.1665E-2     1.302   
   -9.290       0.1667E-2     1.302   
   -9.280       0.1669E-2     1.302   
   -9.270       0.1671E-2     1.303   
   -9.260       0.1673E-2     1.303   
   -9.250       0.1675E-2     1.303   
   -9.240       0.1676E-2     1.303   
   -9.230       0.1678E-2     1.303   
   -9.220       0.1680E-2     1.303   
   -9.210       0.1682E-2     1.304   
   -9.200       0.1684E-2     1.304   
   -9.190       0.1686E-2     1.304   
   -9.180       0.1688E-2     1.304   
   -9.170       0.1690E-2     1.304   
   -9.160       0.1692E-2     1.305   
   -9.150       0.1694E-2     1.305   
   -9.140       0.1696E-2     1.305   
   -9.130       0.1698E-2     1.305   
   -9.120       0.1700E-2     1.305   
   -9.110       0.1702E-2     1.305   
   -9.100       0.1704E-2     1.306   
   -9.090       0.1706E-2     1.306   
   -9.080       0.1708E-2     1.306   
   -9.070       0.1710E-2     1.306   
   -9.060       0.1712E-2     1.306   
   -9.050       0.1714E-2     1.306   
   -9.040       0.1716E-2     1.307   
   -9.030       0.1718E-2     1.307   
   -9.020       0.1720E-2     1.307   
   -9.010       0.1722E-2     1.307   
   -9.000       0.1724E-2     1.307   
   -8.990       0.1726E-2     1.307   
   -8.980       0.1728E-2     1.308   
   -8.970       0.1730E-2     1.308   
   -8.960       0.1732E-2     1.308   
   -8.950       0.1734E-2     1.308   
   -8.940       0.1736E-2     1.308   
   -8.930       0.1738E-2     1.308   
   -8.920       0.1740E-2     1.309   
   -8.910       0.1743E-2     1.309   
   -8.900       0.1745E-2     1.309   
   -8.890       0.1747E-2     1.309   
   -8.880       0.1749E-2     1.309   
   -8.870       0.1751E-2     1.309   
   -8.860       0.1753E-2     1.310   
   -8.850       0.1755E-2     1.310   
   -8.840       0.1757E-2     1.310   
   -8.830       0.1759E-2     1.310   
   -8.820       0.1761E-2     1.310   
   -8.810       0.1763E-2     1.311   
   -8.800       0.1765E-2     1.311   
   -8.790       0.1768E-2     1.311   
   -8.780       0.1770E-2     1.311   
   -8.770       0.1772E-2     1.311   
   -8.760       0.1774E-2     1.311   
   -8.750       0.1776E-2     1.312   
   -8.740       0.1778E-2     1.312   
   -8.730       0.1780E-2     1.312   
   -8.720       0.1782E-2     1.312   
   -8.710       0.1785E-2     1.312   
   -8.700       0.1787E-2     1.313   
   -8.690       0.1789E-2     1.313   
   -8.680       0.1791E-2     1.313   
   -8.670       0.1793E-2     1.313   
   -8.660       0.1795E-2     1.313   
   -8.650       0.1797E-2     1.313   
   -8.640       0.1800E-2     1.314   
   -8.630       0.1802E-2     1.314   
   -8.620       0.1804E-2     1.314   
   -8.610       0.1806E-2     1.314   
   -8.600       0.1808E-2     1.314   
   -8.590       0.1811E-2     1.314   
   -8.580       0.1813E-2     1.315   
   -8.570       0.1815E-2     1.315   
   -8.560       0.1817E-2     1.315   
   -8.550       0.1819E-2     1.315   
   -8.540       0.1822E-2     1.315   
   -8.530       0.1824E-2     1.316   
   -8.520       0.1826E-2     1.316   
   -8.510       0.1828E-2     1.316   
   -8.500       0.1830E-2     1.316   
   -8.490       0.1833E-2     1.316   
   -8.480       0.1835E-2     1.316   
   -8.470       0.1837E-2     1.317   
   -8.460       0.1839E-2     1.317   
   -8.450       0.1842E-2     1.317   
   -8.440       0.1844E-2     1.317   
   -8.430       0.1846E-2     1.317   
   -8.420       0.1848E-2     1.318   
   -8.410       0.1851E-2     1.318   
   -8.400       0.1853E-2     1.318   
   -8.390       0.1855E-2     1.318   
   -8.380       0.1858E-2     1.318   
   -8.370       0.1860E-2     1.319   
   -8.360       0.1862E-2     1.319   
   -8.350       0.1864E-2     1.319   
   -8.340       0.1867E-2     1.319   
   -8.330       0.1869E-2     1.319   
   -8.320       0.1871E-2     1.319   
   -8.310       0.1874E-2     1.320   
   -8.300       0.1876E-2     1.320   
   -8.290       0.1878E-2     1.320   
   -8.280       0.1881E-2     1.320   
   -8.270       0.1883E-2     1.320   
   -8.260       0.1885E-2     1.321   
   -8.250       0.1888E-2     1.321   
   -8.240       0.1890E-2     1.321   
   -8.230       0.1892E-2     1.321   
   -8.220       0.1895E-2     1.321   
   -8.210       0.1897E-2     1.322   
   -8.200       0.1899E-2     1.322   
   -8.190       0.1902E-2     1.322   
   -8.180       0.1904E-2     1.322   
   -8.170       0.1906E-2     1.322   
   -8.160       0.1909E-2     1.322   
   -8.150       0.1911E-2     1.323   
   -8.140       0.1914E-2     1.323   
   -8.130       0.1916E-2     1.323   
   -8.120       0.1918E-2     1.323   
   -8.110       0.1921E-2     1.323   
   -8.100       0.1923E-2     1.324   
   -8.090       0.1926E-2     1.324   
   -8.080       0.1928E-2     1.324   
   -8.070       0.1930E-2     1.324   
   -8.060       0.1933E-2     1.324   
   -8.050       0.1935E-2     1.325   
   -8.040       0.1938E-2     1.325   
   -8.030       0.1940E-2     1.325   
   -8.020       0.1943E-2     1.325   
   -8.010       0.1945E-2     1.325   
   -8.000       0.1947E-2     1.326   
   -7.990       0.1950E-2     1.326   
   -7.980       0.1952E-2     1.326   
   -7.970       0.1955E-2     1.326   
   -7.960       0.1957E-2     1.326   
   -7.950       0.1960E-2     1.327   
   -7.940       0.1962E-2     1.327   
   -7.930       0.1965E-2     1.327   
   -7.920       0.1967E-2     1.327   
   -7.910       0.1970E-2     1.327   
   -7.900       0.1972E-2     1.328   
   -7.890       0.1975E-2     1.328   
   -7.880       0.1977E-2     1.328   
   -7.870       0.1980E-2     1.328   
   -7.860       0.1982E-2     1.328   
   -7.850       0.1985E-2     1.329   
   -7.840       0.1987E-2     1.329   
   -7.830       0.1990E-2     1.329   
   -7.820       0.1993E-2     1.329   
   -7.810       0.1995E-2     1.329   
   -7.800       0.1998E-2     1.330   
   -7.790       0.2000E-2     1.330   
   -7.780       0.2003E-2     1.330   
   -7.770       0.2005E-2     1.330   
   -7.760       0.2008E-2     1.330   
   -7.750       0.2010E-2     1.331   
   -7.740       0.2013E-2     1.331   
   -7.730       0.2016E-2     1.331   
   -7.720       0.2018E-2     1.331   
   -7.710       0.2021E-2     1.331   
   -7.700       0.2023E-2     1.332   
   -7.690       0.2026E-2     1.332   
   -7.680       0.2029E-2     1.332   
   -7.670       0.2031E-2     1.332   
   -7.660       0.2034E-2     1.332   
   -7.650       0.2037E-2     1.333   
   -7.640       0.2039E-2     1.333   
   -7.630       0.2042E-2     1.333   
   -7.620       0.2045E-2     1.333   
   -7.610       0.2047E-2     1.333   
   -7.600       0.2050E-2     1.334   
   -7.590       0.2052E-2     1.334   
   -7.580       0.2055E-2     1.334   
   -7.570       0.2058E-2     1.334   
   -7.560       0.2061E-2     1.334   
   -7.550       0.2063E-2     1.335   
   -7.540       0.2066E-2     1.335   
   -7.530       0.2069E-2     1.335   
   -7.520       0.2071E-2     1.335   
   -7.510       0.2074E-2     1.335   
   -7.500       0.2077E-2     1.336   
   -7.490       0.2079E-2     1.336   
   -7.480       0.2082E-2     1.336   
   -7.470       0.2085E-2     1.336   
   -7.460       0.2088E-2     1.336   
   -7.450       0.2090E-2     1.337   
   -7.440       0.2093E-2     1.337   
   -7.430       0.2096E-2     1.337   
   -7.420       0.2099E-2     1.337   
   -7.410       0.2101E-2     1.337   
   -7.400       0.2104E-2     1.338   
   -7.390       0.2107E-2     1.338   
   -7.380       0.2110E-2     1.338   
   -7.370       0.2113E-2     1.338   
   -7.360       0.2115E-2     1.339   
   -7.350       0.2118E-2     1.339   
   -7.340       0.2121E-2     1.339   
   -7.330       0.2124E-2     1.339   
   -7.320       0.2127E-2     1.339   
   -7.310       0.2129E-2     1.340   
   -7.300       0.2132E-2     1.340   
   -7.290       0.2135E-2     1.340   
   -7.280       0.2138E-2     1.340   
   -7.270       0.2141E-2     1.340   
   -7.260       0.2144E-2     1.341   
   -7.250       0.2147E-2     1.341   
   -7.240       0.2149E-2     1.341   
   -7.230       0.2152E-2     1.341   
   -7.220       0.2155E-2     1.342   
   -7.210       0.2158E-2     1.342   
   -7.200       0.2161E-2     1.342   
   -7.190       0.2164E-2     1.342   
   -7.180       0.2167E-2     1.342   
   -7.170       0.2170E-2     1.343   
   -7.160       0.2173E-2     1.343   
   -7.150       0.2176E-2     1.343   
   -7.140       0.2178E-2     1.343   
   -7.130       0.2181E-2     1.343   
   -7.120       0.2184E-2     1.344   
   -7.110       0.2187E-2     1.344   
   -7.100       0.2190E-2     1.344   
   -7.090       0.2193E-2     1.344   
   -7.080       0.2196E-2     1.345   
   -7.070       0.2199E-2     1.345   
   -7.060       0.2202E-2     1.345   
   -7.050       0.2205E-2     1.345   
   -7.040       0.2208E-2     1.345   
   -7.030       0.2211E-2     1.346   
   -7.020       0.2214E-2     1.346   
   -7.010       0.2217E-2     1.346   
   -7.000       0.2220E-2     1.346   
   -6.990       0.2223E-2     1.347   
   -6.980       0.2226E-2     1.347   
   -6.970       0.2229E-2     1.347   
   -6.960       0.2232E-2     1.347   
   -6.950       0.2235E-2     1.347   
   -6.940       0.2238E-2     1.348   
   -6.930       0.2241E-2     1.348   
   -6.920       0.2245E-2     1.348   
   -6.910       0.2248E-2     1.348   
   -6.900       0.2251E-2     1.349   
   -6.890       0.2254E-2     1.349   
   -6.880       0.2257E-2     1.349   
   -6.870       0.2260E-2     1.349   
   -6.860       0.2263E-2     1.349   
   -6.850       0.2266E-2     1.350   
   -6.840       0.2269E-2     1.350   
   -6.830       0.2272E-2     1.350   
   -6.820       0.2276E-2     1.350   
   -6.810       0.2279E-2     1.351   
   -6.800       0.2282E-2     1.351   
   -6.790       0.2285E-2     1.351   
   -6.780       0.2288E-2     1.351   
   -6.770       0.2291E-2     1.352   
   -6.760       0.2295E-2     1.352   
   -6.750       0.2298E-2     1.352   
   -6.740       0.2301E-2     1.352   
   -6.730       0.2304E-2     1.352   
   -6.720       0.2307E-2     1.353   
   -6.710       0.2311E-2     1.353   
   -6.700       0.2314E-2     1.353   
   -6.690       0.2317E-2     1.353   
   -6.680       0.2320E-2     1.354   
   -6.670       0.2324E-2     1.354   
   -6.660       0.2327E-2     1.354   
   -6.650       0.2330E-2     1.354   
   -6.640       0.2333E-2     1.355   
   -6.630       0.2337E-2     1.355   
   -6.620       0.2340E-2     1.355   
   -6.610       0.2343E-2     1.355   
   -6.600       0.2347E-2     1.355   
   -6.590       0.2350E-2     1.356   
   -6.580       0.2353E-2     1.356   
   -6.570       0.2356E-2     1.356   
   -6.560       0.2360E-2     1.356   
   -6.550       0.2363E-2     1.357   
   -6.540       0.2366E-2     1.357   
   -6.530       0.2370E-2     1.357   
   -6.520       0.2373E-2     1.357   
   -6.510       0.2377E-2     1.358   
   -6.500       0.2380E-2     1.358   
   -6.490       0.2383E-2     1.358   
   -6.480       0.2387E-2     1.358   
   -6.470       0.2390E-2     1.359   
   -6.460       0.2393E-2     1.359   
   -6.450       0.2397E-2     1.359   
   -6.440       0.2400E-2     1.359   
   -6.430       0.2404E-2     1.360   
   -6.420       0.2407E-2     1.360   
   -6.410       0.2411E-2     1.360   
   -6.400       0.2414E-2     1.360   
   -6.390       0.2417E-2     1.360   
   -6.380       0.2421E-2     1.361   
   -6.370       0.2424E-2     1.361   
   -6.360       0.2428E-2     1.361   
   -6.350       0.2431E-2     1.361   
   -6.340       0.2435E-2     1.362   
   -6.330       0.2438E-2     1.362   
   -6.320       0.2442E-2     1.362   
   -6.310       0.2445E-2     1.362   
   -6.300       0.2449E-2     1.363   
   -6.290       0.2453E-2     1.363   
   -6.280       0.2456E-2     1.363   
   -6.270       0.2460E-2     1.363   
   -6.260       0.2463E-2     1.364   
   -6.250       0.2467E-2     1.364   
   -6.240       0.2470E-2     1.364   
   -6.230       0.2474E-2     1.364   
   -6.220       0.2477E-2     1.365   
   -6.210       0.2481E-2     1.365   
   -6.200       0.2485E-2     1.365   
   -6.190       0.2488E-2     1.365   
   -6.180       0.2492E-2     1.366   
   -6.170       0.2496E-2     1.366   
   -6.160       0.2499E-2     1.366   
   -6.150       0.2503E-2     1.366   
   -6.140       0.2507E-2     1.367   
   -6.130       0.2510E-2     1.367   
   -6.120       0.2514E-2     1.367   
   -6.110       0.2518E-2     1.367   
   -6.100       0.2521E-2     1.368   
   -6.090       0.2525E-2     1.368   
   -6.080       0.2529E-2     1.368   
   -6.070       0.2532E-2     1.368   
   -6.060       0.2536E-2     1.369   
   -6.050       0.2540E-2     1.369   
   -6.040       0.2544E-2     1.369   
   -6.030       0.2547E-2     1.369   
   -6.020       0.2551E-2     1.370   
   -6.010       0.2555E-2     1.370   
   -6.000       0.2559E-2     1.370   
   -5.990       0.2563E-2     1.370   
   -5.980       0.2566E-2     1.371   
   -5.970       0.2570E-2     1.371   
   -5.960       0.2574E-2     1.371   
   -5.950       0.2578E-2     1.371   
   -5.940       0.2582E-2     1.372   
   -5.930       0.2585E-2     1.372   
   -5.920       0.2589E-2     1.372   
   -5.910       0.2593E-2     1.372   
   -5.900       0.2597E-2     1.373   
   -5.890       0.2601E-2     1.373   
   -5.880       0.2605E-2     1.373   
   -5.870       0.2609E-2     1.374   
   -5.860       0.2613E-2     1.374   
   -5.850       0.2617E-2     1.374   
   -5.840       0.2621E-2     1.374   
   -5.830       0.2624E-2     1.375   
   -5.820       0.2628E-2     1.375   
   -5.810       0.2632E-2     1.375   
   -5.800       0.2636E-2     1.375   
   -5.790       0.2640E-2     1.376   
   -5.780       0.2644E-2     1.376   
   -5.770       0.2648E-2     1.376   
   -5.760       0.2652E-2     1.376   
   -5.750       0.2656E-2     1.377   
   -5.740       0.2660E-2     1.377   
   -5.730       0.2664E-2     1.377   
   -5.720       0.2668E-2     1.377   
   -5.710       0.2672E-2     1.378   
   -5.700       0.2677E-2     1.378   
   -5.690       0.2681E-2     1.378   
   -5.680       0.2685E-2     1.379   
   -5.670       0.2689E-2     1.379   
   -5.660       0.2693E-2     1.379   
   -5.650       0.2697E-2     1.379   
   -5.640       0.2701E-2     1.380   
   -5.630       0.2705E-2     1.380   
   -5.620       0.2709E-2     1.380   
   -5.610       0.2714E-2     1.380   
   -5.600       0.2718E-2     1.381   
   -5.590       0.2722E-2     1.381   
   -5.580       0.2726E-2     1.381   
   -5.570       0.2730E-2     1.382   
   -5.560       0.2735E-2     1.382   
   -5.550       0.2739E-2     1.382   
   -5.540       0.2743E-2     1.382   
   -5.530       0.2747E-2     1.383   
   -5.520       0.2751E-2     1.383   
   -5.510       0.2756E-2     1.383   
   -5.500       0.2760E-2     1.383   
   -5.490       0.2764E-2     1.384   
   -5.480       0.2769E-2     1.384   
   -5.470       0.2773E-2     1.384   
   -5.460       0.2777E-2     1.385   
   -5.450       0.2782E-2     1.385   
   -5.440       0.2786E-2     1.385   
   -5.430       0.2790E-2     1.385   
   -5.420       0.2795E-2     1.386   
   -5.410       0.2799E-2     1.386   
   -5.400       0.2803E-2     1.386   
   -5.390       0.2808E-2     1.387   
   -5.380       0.2812E-2     1.387   
   -5.370       0.2817E-2     1.387   
   -5.360       0.2821E-2     1.387   
   -5.350       0.2825E-2     1.388   
   -5.340       0.2830E-2     1.388   
   -5.330       0.2834E-2     1.388   
   -5.320       0.2839E-2     1.388   
   -5.310       0.2843E-2     1.389   
   -5.300       0.2848E-2     1.389   
   -5.290       0.2852E-2     1.389   
   -5.280       0.2857E-2     1.390   
   -5.270       0.2861E-2     1.390   
   -5.260       0.2866E-2     1.390   
   -5.250       0.2870E-2     1.390   
   -5.240       0.2875E-2     1.391   
   -5.230       0.2879E-2     1.391   
   -5.220       0.2884E-2     1.391   
   -5.210       0.2889E-2     1.392   
   -5.200       0.2893E-2     1.392   
   -5.190       0.2898E-2     1.392   
   -5.180       0.2903E-2     1.393   
   -5.170       0.2907E-2     1.393   
   -5.160       0.2912E-2     1.393   
   -5.150       0.2916E-2     1.393   
   -5.140       0.2921E-2     1.394   
   -5.130       0.2926E-2     1.394   
