#                                                           
#  ____  ____     _       ____    ____  ______      ___     
# |_  _||_  _|   / \     |_   \  /   _||_   _ \   ."   `.   
#   \ \  / /    / _ \      |   \/   |    | |_) | /  .-.  \  
#    \ \/ /    / ___ \     | |\  /| |    |  __". | |   | |  
#    _|  |_  _/ /   \ \_  _| |_\/_| |_  _| |__) |\  `-"  /  
#   |______||____| |____||_____||_____||_______/  `.___."   
#                                                           
#                                                           
#                                                           
#        Version 4.3.0 Revision 15338 Hash 3cdf17c          
#                      MPI+SLK Build                        
#                http://www.yambo-code.org                  
#
# Absorption @ Q(1) [q->0 direction] :0.1000E-4  0.000     0.000   
#
#
# - Energies      are Teter 93(XC)
# - Wavefunctions are Teter 93(XC)
#
# - The Green`s function is Resonant -
# - Using the Length Gauge -
# - [r,Vnl] *is* included -
#
#   BSK|Identifier              :3382
#      |Dimension               :96
#      |Bands                   :3 - 10
#      |Exchange           [res]: yes
#      |Correlation        [res]: no
#      |Kernel`s coupling       : no
#      |Exchange           [cpl]: no
#      |Correlation        [cpl]: no
#      |W interaction is bare   : no
#      |ALDA kernel in R-space  : no
#      |RL vectors    [exchange]:63
#      |E/h energy range    [ev]:-1.000000 - -1.000000
#      |Coupling range     [o/o]: 100.0000 -  100.0000
#
#    E/ev[1]      EPS-Im[2]    EPS-Re[3]    EPSo-Im[4]   EPSo-Re[5]
#
   -10.00       0.8153E-2     2.271       0.8290E-2     2.282   
   -9.990       0.8164E-2     2.272       0.8301E-2     2.283   
   -9.980       0.8174E-2     2.273       0.8311E-2     2.283   
   -9.970       0.8185E-2     2.274       0.8322E-2     2.284   
   -9.960       0.8195E-2     2.274       0.8333E-2     2.285   
   -9.950       0.8206E-2     2.275       0.8344E-2     2.286   
   -9.940       0.8216E-2     2.276       0.8355E-2     2.287   
   -9.930       0.8227E-2     2.277       0.8366E-2     2.288   
   -9.920       0.8237E-2     2.278       0.8376E-2     2.288   
   -9.910       0.8248E-2     2.279       0.8387E-2     2.289   
   -9.900       0.8259E-2     2.279       0.8398E-2     2.290   
   -9.890       0.8269E-2     2.280       0.8409E-2     2.291   
   -9.880       0.8280E-2     2.281       0.8420E-2     2.292   
   -9.870       0.8291E-2     2.282       0.8431E-2     2.293   
   -9.860       0.8302E-2     2.283       0.8442E-2     2.293   
   -9.850       0.8312E-2     2.284       0.8453E-2     2.294   
   -9.840       0.8323E-2     2.284       0.8464E-2     2.295   
   -9.830       0.8334E-2     2.285       0.8475E-2     2.296   
   -9.820       0.8345E-2     2.286       0.8487E-2     2.297   
   -9.810       0.8356E-2     2.287       0.8498E-2     2.298   
   -9.800       0.8366E-2     2.288       0.8509E-2     2.299   
   -9.790       0.8377E-2     2.289       0.8520E-2     2.299   
   -9.780       0.8388E-2     2.289       0.8531E-2     2.300   
   -9.770       0.8399E-2     2.290       0.8542E-2     2.301   
   -9.760       0.8410E-2     2.291       0.8554E-2     2.302   
   -9.750       0.8421E-2     2.292       0.8565E-2     2.303   
   -9.740       0.8432E-2     2.293       0.8576E-2     2.304   
   -9.730       0.8443E-2     2.294       0.8587E-2     2.305   
   -9.720       0.8454E-2     2.294       0.8599E-2     2.305   
   -9.710       0.8465E-2     2.295       0.8610E-2     2.306   
   -9.700       0.8476E-2     2.296       0.8622E-2     2.307   
   -9.690       0.8487E-2     2.297       0.8633E-2     2.308   
   -9.680       0.8499E-2     2.298       0.8644E-2     2.309   
   -9.670       0.8510E-2     2.299       0.8656E-2     2.310   
   -9.660       0.8521E-2     2.300       0.8667E-2     2.311   
   -9.650       0.8532E-2     2.300       0.8679E-2     2.311   
   -9.640       0.8543E-2     2.301       0.8690E-2     2.312   
   -9.630       0.8555E-2     2.302       0.8702E-2     2.313   
   -9.620       0.8566E-2     2.303       0.8713E-2     2.314   
   -9.610       0.8577E-2     2.304       0.8725E-2     2.315   
   -9.600       0.8588E-2     2.305       0.8736E-2     2.316   
   -9.590       0.8600E-2     2.306       0.8748E-2     2.317   
   -9.580       0.8611E-2     2.306       0.8760E-2     2.318   
   -9.570       0.8622E-2     2.307       0.8771E-2     2.318   
   -9.560       0.8634E-2     2.308       0.8783E-2     2.319   
   -9.550       0.8645E-2     2.309       0.8795E-2     2.320   
   -9.540       0.8657E-2     2.310       0.8807E-2     2.321   
   -9.530       0.8668E-2     2.311       0.8818E-2     2.322   
   -9.520       0.8680E-2     2.312       0.8830E-2     2.323   
   -9.510       0.8691E-2     2.312       0.8842E-2     2.324   
   -9.500       0.8703E-2     2.313       0.8854E-2     2.325   
   -9.490       0.8714E-2     2.314       0.8866E-2     2.325   
   -9.480       0.8726E-2     2.315       0.8877E-2     2.326   
   -9.470       0.8737E-2     2.316       0.8889E-2     2.327   
   -9.460       0.8749E-2     2.317       0.8901E-2     2.328   
   -9.450       0.8761E-2     2.318       0.8913E-2     2.329   
   -9.440       0.8772E-2     2.319       0.8925E-2     2.330   
   -9.430       0.8784E-2     2.319       0.8937E-2     2.331   
   -9.420       0.8796E-2     2.320       0.8949E-2     2.332   
   -9.410       0.8807E-2     2.321       0.8961E-2     2.333   
   -9.400       0.8819E-2     2.322       0.8973E-2     2.333   
   -9.390       0.8831E-2     2.323       0.8985E-2     2.334   
   -9.380       0.8843E-2     2.324       0.8998E-2     2.335   
   -9.370       0.8855E-2     2.325       0.9010E-2     2.336   
   -9.360       0.8866E-2     2.326       0.9022E-2     2.337   
   -9.350       0.8878E-2     2.326       0.9034E-2     2.338   
   -9.340       0.8890E-2     2.327       0.9046E-2     2.339   
   -9.330       0.8902E-2     2.328       0.9059E-2     2.340   
   -9.320       0.8914E-2     2.329       0.9071E-2     2.341   
   -9.310       0.8926E-2     2.330       0.9083E-2     2.342   
   -9.300       0.8938E-2     2.331       0.9095E-2     2.343   
   -9.290       0.8950E-2     2.332       0.9108E-2     2.343   
   -9.280       0.8962E-2     2.333       0.9120E-2     2.344   
   -9.270       0.8974E-2     2.334       0.9133E-2     2.345   
   -9.260       0.8986E-2     2.335       0.9145E-2     2.346   
   -9.250       0.8998E-2     2.335       0.9157E-2     2.347   
   -9.240       0.9011E-2     2.336       0.9170E-2     2.348   
   -9.230       0.9023E-2     2.337       0.9182E-2     2.349   
   -9.220       0.9035E-2     2.338       0.9195E-2     2.350   
   -9.210       0.9047E-2     2.339       0.9207E-2     2.351   
   -9.200       0.9059E-2     2.340       0.9220E-2     2.352   
   -9.190       0.9072E-2     2.341       0.9233E-2     2.353   
   -9.180       0.9084E-2     2.342       0.9245E-2     2.354   
   -9.170       0.9096E-2     2.343       0.9258E-2     2.354   
   -9.160       0.9109E-2     2.344       0.9271E-2     2.355   
   -9.150       0.9121E-2     2.344       0.9283E-2     2.356   
   -9.140       0.9133E-2     2.345       0.9296E-2     2.357   
     -9.1300       0.0091       2.3463       0.0093       2.3581
     -9.1200       0.0092       2.3472       0.0093       2.3591
     -9.1100       0.0092       2.3481       0.0093       2.3600
     -9.1000       0.0092       2.3490       0.0093       2.3609
     -9.0900       0.0092       2.3500       0.0094       2.3619
     -9.0800       0.0092       2.3509       0.0094       2.3628
     -9.0700       0.0092       2.3518       0.0094       2.3638
     -9.0600       0.0092       2.3527       0.0094       2.3647
     -9.0500       0.0092       2.3537       0.0094       2.3656
     -9.0400       0.0093       2.3546       0.0094       2.3666
     -9.0300       0.0093       2.3555       0.0094       2.3675
     -9.0200       0.0093       2.3564       0.0095       2.3685
     -9.0100       0.0093       2.3574       0.0095       2.3694
     -9.0000       0.0093       2.3583       0.0095       2.3704
     -8.9900       0.0093       2.3592       0.0095       2.3713
     -8.9800       0.0093       2.3602       0.0095       2.3723
     -8.9700       0.0093       2.3611       0.0095       2.3732
     -8.9600       0.0094       2.3620       0.0095       2.3742
     -8.9500       0.0094       2.3630       0.0095       2.3751
     -8.9400       0.0094       2.3639       0.0096       2.3761
     -8.9300       0.0094       2.3648       0.0096       2.3770
     -8.9200       0.0094       2.3658       0.0096       2.3780
     -8.9100       0.0094       2.3667       0.0096       2.3789
     -8.9000       0.0094       2.3677       0.0096       2.3799
     -8.8900       0.0095       2.3686       0.0096       2.3809
     -8.8800       0.0095       2.3696       0.0096       2.3818
     -8.8700       0.0095       2.3705       0.0096       2.3828
     -8.8600       0.0095       2.3715       0.0097       2.3838
     -8.8500       0.0095       2.3724       0.0097       2.3847
     -8.8400       0.0095       2.3734       0.0097       2.3857
     -8.8300       0.0095       2.3743       0.0097       2.3867
     -8.8200       0.0095       2.3753       0.0097       2.3876
     -8.8100       0.0096       2.3762       0.0097       2.3886
     -8.8000       0.0096       2.3772       0.0097       2.3896
     -8.7900       0.0096       2.3781       0.0098       2.3906
     -8.7800       0.0096       2.3791       0.0098       2.3915
     -8.7700       0.0096       2.3800       0.0098       2.3925
     -8.7600       0.0096       2.3810       0.0098       2.3935
     -8.7500       0.0096       2.3820       0.0098       2.3945
     -8.7400       0.0097       2.3829       0.0098       2.3954
     -8.7300       0.0097       2.3839       0.0098       2.3964
     -8.7200       0.0097       2.3849       0.0099       2.3974
     -8.7100       0.0097       2.3858       0.0099       2.3984
     -8.7000       0.0097       2.3868       0.0099       2.3994
     -8.6900       0.0097       2.3878       0.0099       2.4004
     -8.6800       0.0097       2.3887       0.0099       2.4014
     -8.6700       0.0097       2.3897       0.0099       2.4024
     -8.6600       0.0098       2.3907       0.0099       2.4034
     -8.6500       0.0098       2.3917       0.0100       2.4043
     -8.6400       0.0098       2.3927       0.0100       2.4053
     -8.6300       0.0098       2.3936       0.0100       2.4063
     -8.6200       0.0098       2.3946       0.0100       2.4073
     -8.6100       0.0098       2.3956       0.0100       2.4083
     -8.6000       0.0098       2.3966       0.0100       2.4093
     -8.5900       0.0099       2.3976       0.0100       2.4103
     -8.5800       0.0099       2.3985       0.0101       2.4113
     -8.5700       0.0099       2.3995       0.0101       2.4124
     -8.5600       0.0099       2.4005       0.0101       2.4134
     -8.5500       0.0099       2.4015       0.0101       2.4144
     -8.5400       0.0099       2.4025       0.0101       2.4154
     -8.5300       0.0099       2.4035       0.0101       2.4164
     -8.5200       0.0100       2.4045       0.0101       2.4174
     -8.5100       0.0100       2.4055       0.0102       2.4184
     -8.5000       0.0100       2.4065       0.0102       2.4194
     -8.4900       0.0100       2.4075       0.0102       2.4205
    -8.48000      0.01001      2.40849      0.01020      2.42147
    -8.47000      0.01003      2.40949      0.01021      2.42249
    -8.46000      0.01004      2.41049      0.01023      2.42351
    -8.45000      0.01005      2.41150      0.01024      2.42454
    -8.44000      0.01007      2.41250      0.01026      2.42556
    -8.43000      0.01008      2.41351      0.01027      2.42659
    -8.42000      0.01010      2.41452      0.01029      2.42762
    -8.41000      0.01011      2.41553      0.01030      2.42865
    -8.40000      0.01013      2.41654      0.01032      2.42968
    -8.39000      0.01014      2.41755      0.01033      2.43071
    -8.38000      0.01015      2.41857      0.01035      2.43174
    -8.37000      0.01017      2.41958      0.01036      2.43278
    -8.36000      0.01018      2.42060      0.01038      2.43381
    -8.35000      0.01020      2.42162      0.01039      2.43485
    -8.34000      0.01021      2.42264      0.01041      2.43589
    -8.33000      0.01023      2.42366      0.01042      2.43693
    -8.32000      0.01024      2.42469      0.01044      2.43798
    -8.31000      0.01026      2.42571      0.01045      2.43902
    -8.30000      0.01027      2.42674      0.01047      2.44007
    -8.29000      0.01029      2.42777      0.01048      2.44111
    -8.28000      0.01030      2.42880      0.01050      2.44216
    -8.27000      0.01032      2.42983      0.01051      2.44321
    -8.26000      0.01033      2.43086      0.01053      2.44426
    -8.25000      0.01035      2.43189      0.01054      2.44532
    -8.24000      0.01036      2.43293      0.01056      2.44637
    -8.23000      0.01038      2.43396      0.01057      2.44743
    -8.22000      0.01039      2.43500      0.01059      2.44849
    -8.21000      0.01041      2.43604      0.01060      2.44955
    -8.20000      0.01042      2.43708      0.01062      2.45061
    -8.19000      0.01044      2.43813      0.01064      2.45167
    -8.18000      0.01045      2.43917      0.01065      2.45274
    -8.17000      0.01047      2.44022      0.01067      2.45380
    -8.16000      0.01048      2.44127      0.01068      2.45487
    -8.15000      0.01050      2.44231      0.01070      2.45594
    -8.14000      0.01051      2.44336      0.01071      2.45701
    -8.13000      0.01053      2.44442      0.01073      2.45808
    -8.12000      0.01054      2.44547      0.01075      2.45915
    -8.11000      0.01056      2.44653      0.01076      2.46023
    -8.10000      0.01057      2.44758      0.01078      2.46131
    -8.09000      0.01059      2.44864      0.01079      2.46239
    -8.08000      0.01061      2.44970      0.01081      2.46347
    -8.07000      0.01062      2.45076      0.01083      2.46455
    -8.06000      0.01064      2.45182      0.01084      2.46563
    -8.05000      0.01065      2.45289      0.01086      2.46671
    -8.04000      0.01067      2.45395      0.01087      2.46780
    -8.03000      0.01068      2.45502      0.01089      2.46889
    -8.02000      0.01070      2.45609      0.01091      2.46998
    -8.01000      0.01072      2.45716      0.01092      2.47107
    -8.00000      0.01073      2.45823      0.01094      2.47216
    -7.99000      0.01075      2.45931      0.01096      2.47326
    -7.98000      0.01076      2.46038      0.01097      2.47435
    -7.97000      0.01078      2.46146      0.01099      2.47545
    -7.96000      0.01079      2.46254      0.01100      2.47655
    -7.95000      0.01081      2.46362      0.01102      2.47765
    -7.94000      0.01083      2.46470      0.01104      2.47876
    -7.93000      0.01084      2.46578      0.01105      2.47986
    -7.92000      0.01086      2.46687      0.01107      2.48097
    -7.91000      0.01087      2.46795      0.01109      2.48207
    -7.90000      0.01089      2.46904      0.01110      2.48318
    -7.89000      0.01091      2.47013      0.01112      2.48429
    -7.88000      0.01092      2.47122      0.01114      2.48541
    -7.87000      0.01094      2.47232      0.01115      2.48652
    -7.86000      0.01096      2.47341      0.01117      2.48764
    -7.85000      0.01097      2.47451      0.01119      2.48875
    -7.84000      0.01099      2.47561      0.01120      2.48987
    -7.83000      0.01100      2.47671      0.01122      2.49099
    -7.82000      0.01102      2.47781      0.01124      2.49212
    -7.81000      0.01104      2.47891      0.01125      2.49324
    -7.80000      0.01105      2.48001      0.01127      2.49437
    -7.79000      0.01107      2.48112      0.01129      2.49550
    -7.78000      0.01109      2.48223      0.01131      2.49663
    -7.77000      0.01110      2.48334      0.01132      2.49776
    -7.76000      0.01112      2.48445      0.01134      2.49889
    -7.75000      0.01114      2.48556      0.01136      2.50003
    -7.74000      0.01115      2.48668      0.01137      2.50116
    -7.73000      0.01117      2.48779      0.01139      2.50230
    -7.72000      0.01119      2.48891      0.01141      2.50344
    -7.71000      0.01120      2.49003      0.01143      2.50458
    -7.70000      0.01122      2.49115      0.01144      2.50572
    -7.69000      0.01124      2.49227      0.01146      2.50687
    -7.68000      0.01126      2.49340      0.01148      2.50802
    -7.67000      0.01127      2.49452      0.01150      2.50917
    -7.66000      0.01129      2.49565      0.01151      2.51032
    -7.65000      0.01131      2.49678      0.01153      2.51147
    -7.64000      0.01132      2.49791      0.01155      2.51262
    -7.63000      0.01134      2.49905      0.01157      2.51378
    -7.62000      0.01136      2.50018      0.01158      2.51493
    -7.61000      0.01138      2.50132      0.01160      2.51609
    -7.60000      0.01139      2.50246      0.01162      2.51725
    -7.59000      0.01141      2.50360      0.01164      2.51842
    -7.58000      0.01143      2.50474      0.01166      2.51958
    -7.57000      0.01144      2.50588      0.01167      2.52075
    -7.56000      0.01146      2.50703      0.01169      2.52192
    -7.55000      0.01148      2.50817      0.01171      2.52309
    -7.54000      0.01150      2.50932      0.01173      2.52426
    -7.53000      0.01151      2.51047      0.01175      2.52543
    -7.52000      0.01153      2.51162      0.01176      2.52661
    -7.51000      0.01155      2.51278      0.01178      2.52778
    -7.50000      0.01157      2.51393      0.01180      2.52896
    -7.49000      0.01159      2.51509      0.01182      2.53014
    -7.48000      0.01160      2.51625      0.01184      2.53133
    -7.47000      0.01162      2.51741      0.01185      2.53251
    -7.46000      0.01164      2.51857      0.01187      2.53370
    -7.45000      0.01166      2.51974      0.01189      2.53488
    -7.44000      0.01167      2.52091      0.01191      2.53608
    -7.43000      0.01169      2.52207      0.01193      2.53727
    -7.42000      0.01171      2.52324      0.01195      2.53846
    -7.41000      0.01173      2.52442      0.01197      2.53966
    -7.40000      0.01175      2.52559      0.01198      2.54085
    -7.39000      0.01176      2.52676      0.01200      2.54205
    -7.38000      0.01178      2.52794      0.01202      2.54325
    -7.37000      0.01180      2.52912      0.01204      2.54446
    -7.36000      0.01182      2.53030      0.01206      2.54566
    -7.35000      0.01184      2.53148      0.01208      2.54687
    -7.34000      0.01186      2.53267      0.01210      2.54808
    -7.33000      0.01187      2.53385      0.01212      2.54929
    -7.32000      0.01189      2.53504      0.01214      2.55050
    -7.31000      0.01191      2.53623      0.01215      2.55171
    -7.30000      0.01193      2.53742      0.01217      2.55293
    -7.29000      0.01195      2.53862      0.01219      2.55415
    -7.28000      0.01197      2.53981      0.01221      2.55537
    -7.27000      0.01199      2.54101      0.01223      2.55659
    -7.26000      0.01200      2.54221      0.01225      2.55781
    -7.25000      0.01202      2.54341      0.01227      2.55904
    -7.24000      0.01204      2.54462      0.01229      2.56027
    -7.23000      0.01206      2.54582      0.01231      2.56150
    -7.22000      0.01208      2.54703      0.01233      2.56273
    -7.21000      0.01210      2.54824      0.01235      2.56396
    -7.20000      0.01212      2.54945      0.01237      2.56520
    -7.19000      0.01214      2.55066      0.01239      2.56644
