#                                                           
#  __  __   ________   ___ __ __    _______   ______        
# /_/\/_/\ /_______/\ /__//_//_/\ /_______/\ /_____/\       
# \ \ \ \ \\::: _  \ \\::\| \| \ \\::: _  \ \\:::_ \ \      
#  \:\_\ \ \\::(_)  \ \\:.      \ \\::(_)  \/_\:\ \ \ \     
#   \::::_\/ \:: __  \ \\:.\-/\  \ \\::  _  \ \\:\ \ \ \    
#     \::\ \  \:.\ \  \ \\. \  \  \ \\::(_)  \ \\:\_\ \ \   
#      \__\/   \__\/\__\/ \__\/ \__\/ \_______\/ \_____\/   
#                                                           
#                                                           
#        Version 4.3.0 Revision 15341 Hash c146fb2          
#                      MPI+SLK Build                        
#                http://www.yambo-code.org                  
#
# Absorption @ Q(3) [iku] : 0.000000  0.000000  0.500000
#
#
# - Energies      are Teter 93(XC)
# - Wavefunctions are Teter 93(XC)
#
# - The Green`s function is Resonant -
#
#   BSK|Identifier              :1700
#      |Dimension               :96
#      |Bands                   :3 - 10
#      |Exchange           [res]: yes
#      |Correlation        [res]: no
#      |Kernel`s coupling       : no
#      |Exchange           [cpl]: no
#      |Correlation        [cpl]: no
#      |W interaction is bare   : no
#      |ALDA kernel in R-space  : no
#      |RL vectors    [exchange]:63
#      |E/h energy range    [ev]:-1.000000 - -1.000000
#      |Coupling range     [o/o]: 100.0000 -  100.0000
#
#    E/ev[1]      EPS-Im[2]    EPS-Re[3]    EPSo-Im[4]   EPSo-Re[5]
#
   -10.00       0.1437E-2     1.276       0.1522E-2     1.286   
   -9.990       0.1439E-2     1.276       0.1524E-2     1.286   
   -9.980       0.1440E-2     1.276       0.1526E-2     1.287   
   -9.970       0.1442E-2     1.276       0.1527E-2     1.287   
   -9.960       0.1444E-2     1.277       0.1529E-2     1.287   
   -9.950       0.1445E-2     1.277       0.1531E-2     1.287   
   -9.940       0.1447E-2     1.277       0.1533E-2     1.287   
   -9.930       0.1448E-2     1.277       0.1534E-2     1.287   
   -9.920       0.1450E-2     1.277       0.1536E-2     1.287   
   -9.910       0.1452E-2     1.277       0.1538E-2     1.288   
   -9.900       0.1453E-2     1.277       0.1539E-2     1.288   
   -9.890       0.1455E-2     1.278       0.1541E-2     1.288   
   -9.880       0.1456E-2     1.278       0.1543E-2     1.288   
   -9.870       0.1458E-2     1.278       0.1545E-2     1.288   
   -9.860       0.1460E-2     1.278       0.1546E-2     1.288   
   -9.850       0.1461E-2     1.278       0.1548E-2     1.289   
   -9.840       0.1463E-2     1.278       0.1550E-2     1.289   
   -9.830       0.1464E-2     1.278       0.1551E-2     1.289   
   -9.820       0.1466E-2     1.279       0.1553E-2     1.289   
   -9.810       0.1468E-2     1.279       0.1555E-2     1.289   
   -9.800       0.1469E-2     1.279       0.1557E-2     1.289   
   -9.790       0.1471E-2     1.279       0.1558E-2     1.289   
   -9.780       0.1473E-2     1.279       0.1560E-2     1.290   
   -9.770       0.1474E-2     1.279       0.1562E-2     1.290   
   -9.760       0.1476E-2     1.279       0.1564E-2     1.290   
   -9.750       0.1478E-2     1.280       0.1565E-2     1.290   
   -9.740       0.1479E-2     1.280       0.1567E-2     1.290   
   -9.730       0.1481E-2     1.280       0.1569E-2     1.290   
   -9.720       0.1483E-2     1.280       0.1571E-2     1.291   
   -9.710       0.1484E-2     1.280       0.1573E-2     1.291   
   -9.700       0.1486E-2     1.280       0.1574E-2     1.291   
   -9.690       0.1488E-2     1.280       0.1576E-2     1.291   
   -9.680       0.1489E-2     1.281       0.1578E-2     1.291   
   -9.670       0.1491E-2     1.281       0.1580E-2     1.291   
   -9.660       0.1493E-2     1.281       0.1581E-2     1.291   
   -9.650       0.1494E-2     1.281       0.1583E-2     1.292   
   -9.640       0.1496E-2     1.281       0.1585E-2     1.292   
   -9.630       0.1498E-2     1.281       0.1587E-2     1.292   
   -9.620       0.1499E-2     1.282       0.1589E-2     1.292   
   -9.610       0.1501E-2     1.282       0.1590E-2     1.292   
   -9.600       0.1503E-2     1.282       0.1592E-2     1.292   
   -9.590       0.1504E-2     1.282       0.1594E-2     1.293   
   -9.580       0.1506E-2     1.282       0.1596E-2     1.293   
   -9.570       0.1508E-2     1.282       0.1598E-2     1.293   
   -9.560       0.1509E-2     1.282       0.1599E-2     1.293   
   -9.550       0.1511E-2     1.283       0.1601E-2     1.293   
   -9.540       0.1513E-2     1.283       0.1603E-2     1.293   
   -9.530       0.1515E-2     1.283       0.1605E-2     1.294   
   -9.520       0.1516E-2     1.283       0.1607E-2     1.294   
   -9.510       0.1518E-2     1.283       0.1609E-2     1.294   
   -9.500       0.1520E-2     1.283       0.1610E-2     1.294   
   -9.490       0.1521E-2     1.283       0.1612E-2     1.294   
   -9.480       0.1523E-2     1.284       0.1614E-2     1.294   
   -9.470       0.1525E-2     1.284       0.1616E-2     1.295   
   -9.460       0.1527E-2     1.284       0.1618E-2     1.295   
   -9.450       0.1528E-2     1.284       0.1620E-2     1.295   
   -9.440       0.1530E-2     1.284       0.1622E-2     1.295   
   -9.430       0.1532E-2     1.284       0.1623E-2     1.295   
   -9.420       0.1534E-2     1.285       0.1625E-2     1.295   
   -9.410       0.1535E-2     1.285       0.1627E-2     1.295   
   -9.400       0.1537E-2     1.285       0.1629E-2     1.296   
   -9.390       0.1539E-2     1.285       0.1631E-2     1.296   
   -9.380       0.1541E-2     1.285       0.1633E-2     1.296   
   -9.370       0.1542E-2     1.285       0.1635E-2     1.296   
   -9.360       0.1544E-2     1.285       0.1637E-2     1.296   
   -9.350       0.1546E-2     1.286       0.1638E-2     1.296   
   -9.340       0.1548E-2     1.286       0.1640E-2     1.297   
   -9.330       0.1550E-2     1.286       0.1642E-2     1.297   
   -9.320       0.1551E-2     1.286       0.1644E-2     1.297   
   -9.310       0.1553E-2     1.286       0.1646E-2     1.297   
   -9.300       0.1555E-2     1.286       0.1648E-2     1.297   
   -9.290       0.1557E-2     1.287       0.1650E-2     1.297   
   -9.280       0.1558E-2     1.287       0.1652E-2     1.298   
   -9.270       0.1560E-2     1.287       0.1654E-2     1.298   
   -9.260       0.1562E-2     1.287       0.1656E-2     1.298   
   -9.250       0.1564E-2     1.287       0.1658E-2     1.298   
   -9.240       0.1566E-2     1.287       0.1659E-2     1.298   
   -9.230       0.1567E-2     1.287       0.1661E-2     1.298   
   -9.220       0.1569E-2     1.288       0.1663E-2     1.299   
   -9.210       0.1571E-2     1.288       0.1665E-2     1.299   
   -9.200       0.1573E-2     1.288       0.1667E-2     1.299   
   -9.190       0.1575E-2     1.288       0.1669E-2     1.299   
   -9.180       0.1577E-2     1.288       0.1671E-2     1.299   
   -9.170       0.1578E-2     1.288       0.1673E-2     1.299   
   -9.160       0.1580E-2     1.289       0.1675E-2     1.300   
   -9.150       0.1582E-2     1.289       0.1677E-2     1.300   
   -9.140       0.1584E-2     1.289       0.1679E-2     1.300   
   -9.130       0.1586E-2     1.289       0.1681E-2     1.300   
   -9.120       0.1588E-2     1.289       0.1683E-2     1.300   
   -9.110       0.1589E-2     1.289       0.1685E-2     1.300   
   -9.100       0.1591E-2     1.290       0.1687E-2     1.301   
   -9.090       0.1593E-2     1.290       0.1689E-2     1.301   
   -9.080       0.1595E-2     1.290       0.1691E-2     1.301   
   -9.070       0.1597E-2     1.290       0.1693E-2     1.301   
   -9.060       0.1599E-2     1.290       0.1695E-2     1.301   
   -9.050       0.1601E-2     1.290       0.1697E-2     1.301   
   -9.040       0.1603E-2     1.290       0.1699E-2     1.302   
   -9.030       0.1604E-2     1.291       0.1701E-2     1.302   
   -9.020       0.1606E-2     1.291       0.1703E-2     1.302   
   -9.010       0.1608E-2     1.291       0.1705E-2     1.302   
   -9.000       0.1610E-2     1.291       0.1707E-2     1.302   
   -8.990       0.1612E-2     1.291       0.1709E-2     1.302   
   -8.980       0.1614E-2     1.291       0.1711E-2     1.303   
   -8.970       0.1616E-2     1.292       0.1713E-2     1.303   
   -8.960       0.1618E-2     1.292       0.1715E-2     1.303   
   -8.950       0.1620E-2     1.292       0.1717E-2     1.303   
   -8.940       0.1621E-2     1.292       0.1719E-2     1.303   
   -8.930       0.1623E-2     1.292       0.1721E-2     1.304   
   -8.920       0.1625E-2     1.292       0.1723E-2     1.304   
   -8.910       0.1627E-2     1.293       0.1725E-2     1.304   
   -8.900       0.1629E-2     1.293       0.1727E-2     1.304   
   -8.890       0.1631E-2     1.293       0.1729E-2     1.304   
   -8.880       0.1633E-2     1.293       0.1731E-2     1.304   
   -8.870       0.1635E-2     1.293       0.1733E-2     1.305   
   -8.860       0.1637E-2     1.293       0.1735E-2     1.305   
   -8.850       0.1639E-2     1.294       0.1737E-2     1.305   
   -8.840       0.1641E-2     1.294       0.1740E-2     1.305   
   -8.830       0.1643E-2     1.294       0.1742E-2     1.305   
   -8.820       0.1645E-2     1.294       0.1744E-2     1.305   
   -8.810       0.1647E-2     1.294       0.1746E-2     1.306   
   -8.800       0.1649E-2     1.294       0.1748E-2     1.306   
   -8.790       0.1651E-2     1.295       0.1750E-2     1.306   
   -8.780       0.1652E-2     1.295       0.1752E-2     1.306   
   -8.770       0.1654E-2     1.295       0.1754E-2     1.306   
   -8.760       0.1656E-2     1.295       0.1756E-2     1.306   
   -8.750       0.1658E-2     1.295       0.1758E-2     1.307   
   -8.740       0.1660E-2     1.295       0.1761E-2     1.307   
   -8.730       0.1662E-2     1.296       0.1763E-2     1.307   
   -8.720       0.1664E-2     1.296       0.1765E-2     1.307   
   -8.710       0.1666E-2     1.296       0.1767E-2     1.307   
   -8.700       0.1668E-2     1.296       0.1769E-2     1.308   
   -8.690       0.1670E-2     1.296       0.1771E-2     1.308   
   -8.680       0.1672E-2     1.296       0.1773E-2     1.308   
   -8.670       0.1674E-2     1.297       0.1775E-2     1.308   
   -8.660       0.1676E-2     1.297       0.1778E-2     1.308   
   -8.650       0.1678E-2     1.297       0.1780E-2     1.308   
   -8.640       0.1680E-2     1.297       0.1782E-2     1.309   
   -8.630       0.1682E-2     1.297       0.1784E-2     1.309   
   -8.620       0.1684E-2     1.297       0.1786E-2     1.309   
   -8.610       0.1687E-2     1.298       0.1788E-2     1.309   
   -8.600       0.1689E-2     1.298       0.1791E-2     1.309   
   -8.590       0.1691E-2     1.298       0.1793E-2     1.309   
   -8.580       0.1693E-2     1.298       0.1795E-2     1.310   
   -8.570       0.1695E-2     1.298       0.1797E-2     1.310   
   -8.560       0.1697E-2     1.298       0.1799E-2     1.310   
   -8.550       0.1699E-2     1.299       0.1802E-2     1.310   
   -8.540       0.1701E-2     1.299       0.1804E-2     1.310   
   -8.530       0.1703E-2     1.299       0.1806E-2     1.311   
   -8.520       0.1705E-2     1.299       0.1808E-2     1.311   
   -8.510       0.1707E-2     1.299       0.1810E-2     1.311   
   -8.500       0.1709E-2     1.299       0.1813E-2     1.311   
   -8.490       0.1711E-2     1.300       0.1815E-2     1.311   
   -8.480       0.1713E-2     1.300       0.1817E-2     1.311   
   -8.470       0.1715E-2     1.300       0.1819E-2     1.312   
   -8.460       0.1717E-2     1.300       0.1821E-2     1.312   
   -8.450       0.1720E-2     1.300       0.1824E-2     1.312   
   -8.440       0.1722E-2     1.300       0.1826E-2     1.312   
   -8.430       0.1724E-2     1.301       0.1828E-2     1.312   
   -8.420       0.1726E-2     1.301       0.1830E-2     1.313   
   -8.410       0.1728E-2     1.301       0.1833E-2     1.313   
   -8.400       0.1730E-2     1.301       0.1835E-2     1.313   
   -8.390       0.1732E-2     1.301       0.1837E-2     1.313   
   -8.380       0.1734E-2     1.301       0.1839E-2     1.313   
   -8.370       0.1736E-2     1.302       0.1842E-2     1.313   
   -8.360       0.1739E-2     1.302       0.1844E-2     1.314   
   -8.350       0.1741E-2     1.302       0.1846E-2     1.314   
   -8.340       0.1743E-2     1.302       0.1849E-2     1.314   
   -8.330       0.1745E-2     1.302       0.1851E-2     1.314   
   -8.320       0.1747E-2     1.303       0.1853E-2     1.314   
   -8.310       0.1749E-2     1.303       0.1855E-2     1.315   
   -8.300       0.1752E-2     1.303       0.1858E-2     1.315   
   -8.290       0.1754E-2     1.303       0.1860E-2     1.315   
   -8.280       0.1756E-2     1.303       0.1862E-2     1.315   
   -8.270       0.1758E-2     1.303       0.1865E-2     1.315   
   -8.260       0.1760E-2     1.304       0.1867E-2     1.316   
   -8.250       0.1762E-2     1.304       0.1869E-2     1.316   
   -8.240       0.1765E-2     1.304       0.1872E-2     1.316   
   -8.230       0.1767E-2     1.304       0.1874E-2     1.316   
   -8.220       0.1769E-2     1.304       0.1876E-2     1.316   
   -8.210       0.1771E-2     1.304       0.1879E-2     1.316   
   -8.200       0.1773E-2     1.305       0.1881E-2     1.317   
   -8.190       0.1776E-2     1.305       0.1883E-2     1.317   
   -8.180       0.1778E-2     1.305       0.1886E-2     1.317   
   -8.170       0.1780E-2     1.305       0.1888E-2     1.317   
   -8.160       0.1782E-2     1.305       0.1890E-2     1.317   
   -8.150       0.1784E-2     1.306       0.1893E-2     1.318   
   -8.140       0.1787E-2     1.306       0.1895E-2     1.318   
   -8.130       0.1789E-2     1.306       0.1898E-2     1.318   
   -8.120       0.1791E-2     1.306       0.1900E-2     1.318   
   -8.110       0.1793E-2     1.306       0.1902E-2     1.318   
   -8.100       0.1796E-2     1.306       0.1905E-2     1.319   
   -8.090       0.1798E-2     1.307       0.1907E-2     1.319   
   -8.080       0.1800E-2     1.307       0.1910E-2     1.319   
   -8.070       0.1802E-2     1.307       0.1912E-2     1.319   
   -8.060       0.1805E-2     1.307       0.1914E-2     1.319   
   -8.050       0.1807E-2     1.307       0.1917E-2     1.319   
   -8.040       0.1809E-2     1.308       0.1919E-2     1.320   
   -8.030       0.1811E-2     1.308       0.1922E-2     1.320   
   -8.020       0.1814E-2     1.308       0.1924E-2     1.320   
   -8.010       0.1816E-2     1.308       0.1926E-2     1.320   
   -8.000       0.1818E-2     1.308       0.1929E-2     1.320   
   -7.990       0.1821E-2     1.308       0.1931E-2     1.321   
   -7.980       0.1823E-2     1.309       0.1934E-2     1.321   
   -7.970       0.1825E-2     1.309       0.1936E-2     1.321   
   -7.960       0.1827E-2     1.309       0.1939E-2     1.321   
   -7.950       0.1830E-2     1.309       0.1941E-2     1.321   
   -7.940       0.1832E-2     1.309       0.1944E-2     1.322   
   -7.930       0.1834E-2     1.310       0.1946E-2     1.322   
   -7.920       0.1837E-2     1.310       0.1949E-2     1.322   
   -7.910       0.1839E-2     1.310       0.1951E-2     1.322   
   -7.900       0.1841E-2     1.310       0.1954E-2     1.322   
   -7.890       0.1844E-2     1.310       0.1956E-2     1.323   
   -7.880       0.1846E-2     1.310       0.1959E-2     1.323   
   -7.870       0.1848E-2     1.311       0.1961E-2     1.323   
   -7.860       0.1851E-2     1.311       0.1964E-2     1.323   
   -7.850       0.1853E-2     1.311       0.1966E-2     1.323   
   -7.840       0.1856E-2     1.311       0.1969E-2     1.324   
   -7.830       0.1858E-2     1.311       0.1971E-2     1.324   
   -7.820       0.1860E-2     1.312       0.1974E-2     1.324   
   -7.810       0.1863E-2     1.312       0.1976E-2     1.324   
   -7.800       0.1865E-2     1.312       0.1979E-2     1.324   
   -7.790       0.1867E-2     1.312       0.1981E-2     1.325   
   -7.780       0.1870E-2     1.312       0.1984E-2     1.325   
   -7.770       0.1872E-2     1.312       0.1986E-2     1.325   
   -7.760       0.1875E-2     1.313       0.1989E-2     1.325   
   -7.750       0.1877E-2     1.313       0.1992E-2     1.325   
   -7.740       0.1879E-2     1.313       0.1994E-2     1.326   
   -7.730       0.1882E-2     1.313       0.1997E-2     1.326   
   -7.720       0.1884E-2     1.313       0.1999E-2     1.326   
   -7.710       0.1887E-2     1.314       0.2002E-2     1.326   
   -7.700       0.1889E-2     1.314       0.2004E-2     1.326   
   -7.690       0.1892E-2     1.314       0.2007E-2     1.327   
   -7.680       0.1894E-2     1.314       0.2010E-2     1.327   
   -7.670       0.1896E-2     1.314       0.2012E-2     1.327   
   -7.660       0.1899E-2     1.315       0.2015E-2     1.327   
   -7.650       0.1901E-2     1.315       0.2018E-2     1.327   
   -7.640       0.1904E-2     1.315       0.2020E-2     1.328   
   -7.630       0.1906E-2     1.315       0.2023E-2     1.328   
   -7.620       0.1909E-2     1.315       0.2025E-2     1.328   
   -7.610       0.1911E-2     1.316       0.2028E-2     1.328   
   -7.600       0.1914E-2     1.316       0.2031E-2     1.328   
   -7.590       0.1916E-2     1.316       0.2033E-2     1.329   
   -7.580       0.1919E-2     1.316       0.2036E-2     1.329   
   -7.570       0.1921E-2     1.316       0.2039E-2     1.329   
   -7.560       0.1924E-2     1.316       0.2041E-2     1.329   
   -7.550       0.1926E-2     1.317       0.2044E-2     1.329   
   -7.540       0.1929E-2     1.317       0.2047E-2     1.330   
   -7.530       0.1931E-2     1.317       0.2049E-2     1.330   
   -7.520       0.1934E-2     1.317       0.2052E-2     1.330   
   -7.510       0.1936E-2     1.317       0.2055E-2     1.330   
   -7.500       0.1939E-2     1.318       0.2057E-2     1.330   
   -7.490       0.1941E-2     1.318       0.2060E-2     1.331   
   -7.480       0.1944E-2     1.318       0.2063E-2     1.331   
   -7.470       0.1947E-2     1.318       0.2066E-2     1.331   
   -7.460       0.1949E-2     1.318       0.2068E-2     1.331   
   -7.450       0.1952E-2     1.319       0.2071E-2     1.331   
   -7.440       0.1954E-2     1.319       0.2074E-2     1.332   
   -7.430       0.1957E-2     1.319       0.2077E-2     1.332   
   -7.420       0.1959E-2     1.319       0.2079E-2     1.332   
   -7.410       0.1962E-2     1.319       0.2082E-2     1.332   
   -7.400       0.1965E-2     1.320       0.2085E-2     1.332   
   -7.390       0.1967E-2     1.320       0.2088E-2     1.333   
   -7.380       0.1970E-2     1.320       0.2090E-2     1.333   
   -7.370       0.1972E-2     1.320       0.2093E-2     1.333   
   -7.360       0.1975E-2     1.320       0.2096E-2     1.333   
   -7.350       0.1978E-2     1.321       0.2099E-2     1.334   
   -7.340       0.1980E-2     1.321       0.2102E-2     1.334   
   -7.330       0.1983E-2     1.321       0.2104E-2     1.334   
   -7.320       0.1985E-2     1.321       0.2107E-2     1.334   
   -7.310       0.1988E-2     1.321       0.2110E-2     1.334   
   -7.300       0.1991E-2     1.322       0.2113E-2     1.335   
   -7.290       0.1993E-2     1.322       0.2116E-2     1.335   
   -7.280       0.1996E-2     1.322       0.2118E-2     1.335   
   -7.270       0.1999E-2     1.322       0.2121E-2     1.335   
   -7.260       0.2001E-2     1.322       0.2124E-2     1.335   
   -7.250       0.2004E-2     1.323       0.2127E-2     1.336   
   -7.240       0.2007E-2     1.323       0.2130E-2     1.336   
   -7.230       0.2009E-2     1.323       0.2133E-2     1.336   
   -7.220       0.2012E-2     1.323       0.2135E-2     1.336   
   -7.210       0.2015E-2     1.323       0.2138E-2     1.337   
   -7.200       0.2017E-2     1.324       0.2141E-2     1.337   
   -7.190       0.2020E-2     1.324       0.2144E-2     1.337   
   -7.180       0.2023E-2     1.324       0.2147E-2     1.337   
