#                                                           
#  ____  ____     _       ____    ____  ______      ___     
# |_  _||_  _|   / \     |_   \  /   _||_   _ \   ."   `.   
#   \ \  / /    / _ \      |   \/   |    | |_) | /  .-.  \  
#    \ \/ /    / ___ \     | |\  /| |    |  __". | |   | |  
#    _|  |_  _/ /   \ \_  _| |_\/_| |_  _| |__) |\  `-"  /  
#   |______||____| |____||_____||_____||_______/  `.___."   
#                                                           
#                                                           
#                                                           
#        Version 4.3.0 Revision 15338 Hash 3cdf17c          
#                      MPI+SLK Build                        
#                http://www.yambo-code.org                  
#
# Absorption @ Q(4) [iku] : 0.500000  0.250000  0.500000
#
#
# - Energies      are Teter 93(XC)
# - Wavefunctions are Teter 93(XC)
#
# - The Green`s function is Resonant -
#
#   BSK|Identifier              :7789
#      |Dimension               :96
#      |Bands                   :3 - 10
#      |Exchange           [res]: yes
#      |Correlation        [res]: yes
#      |Kernel`s coupling       : no
#      |Exchange           [cpl]: no
#      |Correlation        [cpl]: no
#      |W interaction is bare   : no
#      |ALDA kernel in R-space  : no
#      |RL vectors    [exchange]:51
#      |RL vectors [correlation]:51
#      |E/h energy range    [ev]:-1.000000 - -1.000000
#      |Coupling range     [o/o]: 100.0000 -  100.0000
#    W |Interaction is diagonal : no
#      |Matrix size             :51
#      |Bands                   :1 - 60
#      |e/h energy range    [ev]:-1.000000 - -1.000000
#      |Poles              [o/o]: 100.0000
#      |RL vectors in the sum   :3473
#      |[r,Vnl] included        : yes
#      |Field direction         :0.1000E-4  0.000000  0.000000
#      |Coulomb Cutoff          :none
#      |xc-Kernel               :none
#   RIM|RL components      [col]:0
#      |Random points      [col]:0
#
#    E/ev[1]      EPS-Im[2]    EPS-Re[3]    EPSo-Im[4]   EPSo-Re[5]
#
   -10.00       0.7246E-3     1.113       0.6101E-3     1.105   
   -9.990       0.7255E-3     1.113       0.6108E-3     1.105   
   -9.980       0.7265E-3     1.114       0.6116E-3     1.105   
   -9.970       0.7274E-3     1.114       0.6123E-3     1.105   
   -9.960       0.7284E-3     1.114       0.6130E-3     1.105   
   -9.950       0.7294E-3     1.114       0.6138E-3     1.105   
   -9.940       0.7303E-3     1.114       0.6145E-3     1.105   
   -9.930       0.7313E-3     1.114       0.6152E-3     1.105   
   -9.920       0.7322E-3     1.114       0.6159E-3     1.105   
   -9.910       0.7332E-3     1.114       0.6167E-3     1.105   
   -9.900       0.7342E-3     1.114       0.6174E-3     1.105   
   -9.890       0.7352E-3     1.114       0.6182E-3     1.105   
   -9.880       0.7361E-3     1.114       0.6189E-3     1.105   
   -9.870       0.7371E-3     1.114       0.6196E-3     1.105   
   -9.860       0.7381E-3     1.114       0.6204E-3     1.105   
   -9.850       0.7391E-3     1.114       0.6211E-3     1.106   
   -9.840       0.7400E-3     1.115       0.6219E-3     1.106   
   -9.830       0.7410E-3     1.115       0.6226E-3     1.106   
   -9.820       0.7420E-3     1.115       0.6234E-3     1.106   
   -9.810       0.7430E-3     1.115       0.6241E-3     1.106   
   -9.800       0.7440E-3     1.115       0.6249E-3     1.106   
   -9.790       0.7450E-3     1.115       0.6256E-3     1.106   
   -9.780       0.7460E-3     1.115       0.6264E-3     1.106   
   -9.770       0.7470E-3     1.115       0.6271E-3     1.106   
   -9.760       0.7480E-3     1.115       0.6279E-3     1.106   
   -9.750       0.7490E-3     1.115       0.6286E-3     1.106   
   -9.740       0.7500E-3     1.115       0.6294E-3     1.106   
   -9.730       0.7510E-3     1.115       0.6301E-3     1.106   
   -9.720       0.7520E-3     1.115       0.6309E-3     1.106   
   -9.710       0.7530E-3     1.116       0.6317E-3     1.106   
   -9.700       0.7540E-3     1.116       0.6324E-3     1.106   
   -9.690       0.7550E-3     1.116       0.6332E-3     1.107   
   -9.680       0.7560E-3     1.116       0.6340E-3     1.107   
   -9.670       0.7570E-3     1.116       0.6347E-3     1.107   
   -9.660       0.7580E-3     1.116       0.6355E-3     1.107   
   -9.650       0.7591E-3     1.116       0.6363E-3     1.107   
   -9.640       0.7601E-3     1.116       0.6370E-3     1.107   
   -9.630       0.7611E-3     1.116       0.6378E-3     1.107   
   -9.620       0.7621E-3     1.116       0.6386E-3     1.107   
   -9.610       0.7632E-3     1.116       0.6394E-3     1.107   
   -9.600       0.7642E-3     1.116       0.6401E-3     1.107   
   -9.590       0.7652E-3     1.116       0.6409E-3     1.107   
   -9.580       0.7662E-3     1.116       0.6417E-3     1.107   
   -9.570       0.7673E-3     1.117       0.6425E-3     1.107   
   -9.560       0.7683E-3     1.117       0.6433E-3     1.107   
   -9.550       0.7694E-3     1.117       0.6441E-3     1.107   
   -9.540       0.7704E-3     1.117       0.6448E-3     1.107   
   -9.530       0.7715E-3     1.117       0.6456E-3     1.108   
   -9.520       0.7725E-3     1.117       0.6464E-3     1.108   
   -9.510       0.7736E-3     1.117       0.6472E-3     1.108   
   -9.500       0.7746E-3     1.117       0.6480E-3     1.108   
   -9.490       0.7757E-3     1.117       0.6488E-3     1.108   
   -9.480       0.7767E-3     1.117       0.6496E-3     1.108   
   -9.470       0.7778E-3     1.117       0.6504E-3     1.108   
   -9.460       0.7788E-3     1.117       0.6512E-3     1.108   
   -9.450       0.7799E-3     1.117       0.6520E-3     1.108   
   -9.440       0.7810E-3     1.118       0.6528E-3     1.108   
   -9.430       0.7820E-3     1.118       0.6536E-3     1.108   
   -9.420       0.7831E-3     1.118       0.6544E-3     1.108   
   -9.410       0.7842E-3     1.118       0.6552E-3     1.108   
   -9.400       0.7852E-3     1.118       0.6560E-3     1.108   
   -9.390       0.7863E-3     1.118       0.6568E-3     1.108   
   -9.380       0.7874E-3     1.118       0.6576E-3     1.109   
   -9.370       0.7885E-3     1.118       0.6584E-3     1.109   
   -9.360       0.7896E-3     1.118       0.6593E-3     1.109   
   -9.350       0.7906E-3     1.118       0.6601E-3     1.109   
   -9.340       0.7917E-3     1.118       0.6609E-3     1.109   
   -9.330       0.7928E-3     1.118       0.6617E-3     1.109   
   -9.320       0.7939E-3     1.119       0.6625E-3     1.109   
   -9.310       0.7950E-3     1.119       0.6633E-3     1.109   
   -9.300       0.7961E-3     1.119       0.6642E-3     1.109   
   -9.290       0.7972E-3     1.119       0.6650E-3     1.109   
   -9.280       0.7983E-3     1.119       0.6658E-3     1.109   
   -9.270       0.7994E-3     1.119       0.6666E-3     1.109   
   -9.260       0.8005E-3     1.119       0.6675E-3     1.109   
   -9.250       0.8016E-3     1.119       0.6683E-3     1.109   
   -9.240       0.8027E-3     1.119       0.6691E-3     1.109   
   -9.230       0.8039E-3     1.119       0.6700E-3     1.110   
   -9.220       0.8050E-3     1.119       0.6708E-3     1.110   
   -9.210       0.8061E-3     1.119       0.6716E-3     1.110   
   -9.200       0.8072E-3     1.119       0.6725E-3     1.110   
   -9.190       0.8083E-3     1.120       0.6733E-3     1.110   
   -9.180       0.8095E-3     1.120       0.6742E-3     1.110   
   -9.170       0.8106E-3     1.120       0.6750E-3     1.110   
   -9.160       0.8117E-3     1.120       0.6759E-3     1.110   
   -9.150       0.8128E-3     1.120       0.6767E-3     1.110   
   -9.140       0.8140E-3     1.120       0.6775E-3     1.110   
   -9.130       0.8151E-3     1.120       0.6784E-3     1.110   
   -9.120       0.8163E-3     1.120       0.6792E-3     1.110   
   -9.110       0.8174E-3     1.120       0.6801E-3     1.110   
   -9.100       0.8185E-3     1.120       0.6810E-3     1.110   
   -9.090       0.8197E-3     1.120       0.6818E-3     1.110   
   -9.080       0.8208E-3     1.120       0.6827E-3     1.111   
   -9.070       0.8220E-3     1.121       0.6835E-3     1.111   
   -9.060       0.8231E-3     1.121       0.6844E-3     1.111   
   -9.050       0.8243E-3     1.121       0.6853E-3     1.111   
   -9.040       0.8255E-3     1.121       0.6861E-3     1.111   
   -9.030       0.8266E-3     1.121       0.6870E-3     1.111   
   -9.020       0.8278E-3     1.121       0.6879E-3     1.111   
   -9.010       0.8290E-3     1.121       0.6887E-3     1.111   
   -9.000       0.8301E-3     1.121       0.6896E-3     1.111   
   -8.990       0.8313E-3     1.121       0.6905E-3     1.111   
   -8.980       0.8325E-3     1.121       0.6913E-3     1.111   
   -8.970       0.8337E-3     1.121       0.6922E-3     1.111   
   -8.960       0.8348E-3     1.121       0.6931E-3     1.111   
   -8.950       0.8360E-3     1.122       0.6940E-3     1.111   
   -8.940       0.8372E-3     1.122       0.6949E-3     1.112   
   -8.930       0.8384E-3     1.122       0.6957E-3     1.112   
   -8.920       0.8396E-3     1.122       0.6966E-3     1.112   
   -8.910       0.8408E-3     1.122       0.6975E-3     1.112   
   -8.900       0.8420E-3     1.122       0.6984E-3     1.112   
   -8.890       0.8432E-3     1.122       0.6993E-3     1.112   
   -8.880       0.8444E-3     1.122       0.7002E-3     1.112   
   -8.870       0.8456E-3     1.122       0.7011E-3     1.112   
   -8.860       0.8468E-3     1.122       0.7020E-3     1.112   
   -8.850       0.8480E-3     1.122       0.7029E-3     1.112   
   -8.840       0.8492E-3     1.122       0.7038E-3     1.112   
   -8.830       0.8504E-3     1.123       0.7047E-3     1.112   
   -8.820       0.8516E-3     1.123       0.7056E-3     1.112   
   -8.810       0.8528E-3     1.123       0.7065E-3     1.112   
   -8.800       0.8541E-3     1.123       0.7074E-3     1.112   
   -8.790       0.8553E-3     1.123       0.7083E-3     1.113   
   -8.780       0.8565E-3     1.123       0.7092E-3     1.113   
   -8.770       0.8578E-3     1.123       0.7101E-3     1.113   
   -8.760       0.8590E-3     1.123       0.7110E-3     1.113   
   -8.750       0.8602E-3     1.123       0.7119E-3     1.113   
   -8.740       0.8615E-3     1.123       0.7129E-3     1.113   
   -8.730       0.8627E-3     1.123       0.7138E-3     1.113   
   -8.720       0.8639E-3     1.123       0.7147E-3     1.113   
   -8.710       0.8652E-3     1.124       0.7156E-3     1.113   
   -8.700       0.8664E-3     1.124       0.7165E-3     1.113   
   -8.690       0.8677E-3     1.124       0.7175E-3     1.113   
   -8.680       0.8689E-3     1.124       0.7184E-3     1.113   
   -8.670       0.8702E-3     1.124       0.7193E-3     1.113   
   -8.660       0.8715E-3     1.124       0.7202E-3     1.113   
   -8.650       0.8727E-3     1.124       0.7212E-3     1.114   
   -8.640       0.8740E-3     1.124       0.7221E-3     1.114   
   -8.630       0.8753E-3     1.124       0.7231E-3     1.114   
   -8.620       0.8765E-3     1.124       0.7240E-3     1.114   
   -8.610       0.8778E-3     1.124       0.7249E-3     1.114   
   -8.600       0.8791E-3     1.125       0.7259E-3     1.114   
   -8.590       0.8804E-3     1.125       0.7268E-3     1.114   
   -8.580       0.8816E-3     1.125       0.7278E-3     1.114   
   -8.570       0.8829E-3     1.125       0.7287E-3     1.114   
   -8.560       0.8842E-3     1.125       0.7297E-3     1.114   
   -8.550       0.8855E-3     1.125       0.7306E-3     1.114   
   -8.540       0.8868E-3     1.125       0.7316E-3     1.114   
   -8.530       0.8881E-3     1.125       0.7325E-3     1.114   
   -8.520       0.8894E-3     1.125       0.7335E-3     1.115   
   -8.510       0.8907E-3     1.125       0.7344E-3     1.115   
   -8.500       0.8920E-3     1.125       0.7354E-3     1.115   
   -8.490       0.8933E-3     1.126       0.7364E-3     1.115   
   -8.480       0.8946E-3     1.126       0.7373E-3     1.115   
   -8.470       0.8960E-3     1.126       0.7383E-3     1.115   
   -8.460       0.8973E-3     1.126       0.7393E-3     1.115   
   -8.450       0.8986E-3     1.126       0.7402E-3     1.115   
   -8.440       0.8999E-3     1.126       0.7412E-3     1.115   
   -8.430       0.9012E-3     1.126       0.7422E-3     1.115   
   -8.420       0.9026E-3     1.126       0.7432E-3     1.115   
   -8.410       0.9039E-3     1.126       0.7441E-3     1.115   
   -8.400       0.9052E-3     1.126       0.7451E-3     1.115   
   -8.390       0.9066E-3     1.126       0.7461E-3     1.115   
   -8.380       0.9079E-3     1.126       0.7471E-3     1.116   
   -8.370       0.9093E-3     1.127       0.7481E-3     1.116   
   -8.360       0.9106E-3     1.127       0.7491E-3     1.116   
   -8.350       0.9120E-3     1.127       0.7501E-3     1.116   
   -8.340       0.9133E-3     1.127       0.7510E-3     1.116   
   -8.330       0.9147E-3     1.127       0.7520E-3     1.116   
   -8.320       0.9160E-3     1.127       0.7530E-3     1.116   
   -8.310       0.9174E-3     1.127       0.7540E-3     1.116   
   -8.300       0.9188E-3     1.127       0.7550E-3     1.116   
   -8.290       0.9202E-3     1.127       0.7560E-3     1.116   
   -8.280       0.9215E-3     1.127       0.7570E-3     1.116   
   -8.270       0.9229E-3     1.128       0.7580E-3     1.116   
   -8.260       0.9243E-3     1.128       0.7591E-3     1.116   
   -8.250       0.9257E-3     1.128       0.7601E-3     1.117   
   -8.240       0.9270E-3     1.128       0.7611E-3     1.117   
   -8.230       0.9284E-3     1.128       0.7621E-3     1.117   
   -8.220       0.9298E-3     1.128       0.7631E-3     1.117   
   -8.210       0.9312E-3     1.128       0.7641E-3     1.117   
   -8.200       0.9326E-3     1.128       0.7652E-3     1.117   
   -8.190       0.9340E-3     1.128       0.7662E-3     1.117   
   -8.180       0.9354E-3     1.128       0.7672E-3     1.117   
   -8.170       0.9368E-3     1.128       0.7682E-3     1.117   
   -8.160       0.9383E-3     1.129       0.7693E-3     1.117   
   -8.150       0.9397E-3     1.129       0.7703E-3     1.117   
   -8.140       0.9411E-3     1.129       0.7713E-3     1.117   
   -8.130       0.9425E-3     1.129       0.7724E-3     1.117   
   -8.120       0.9439E-3     1.129       0.7734E-3     1.118   
   -8.110       0.9454E-3     1.129       0.7744E-3     1.118   
   -8.100       0.9468E-3     1.129       0.7755E-3     1.118   
   -8.090       0.9482E-3     1.129       0.7765E-3     1.118   
   -8.080       0.9497E-3     1.129       0.7776E-3     1.118   
   -8.070       0.9511E-3     1.129       0.7786E-3     1.118   
   -8.060       0.9526E-3     1.129       0.7797E-3     1.118   
   -8.050       0.9540E-3     1.130       0.7807E-3     1.118   
   -8.040       0.9555E-3     1.130       0.7818E-3     1.118   
   -8.030       0.9569E-3     1.130       0.7828E-3     1.118   
   -8.020       0.9584E-3     1.130       0.7839E-3     1.118   
   -8.010       0.9598E-3     1.130       0.7850E-3     1.118   
   -8.000       0.9613E-3     1.130       0.7860E-3     1.118   
   -7.990       0.9628E-3     1.130       0.7871E-3     1.119   
   -7.980       0.9642E-3     1.130       0.7882E-3     1.119   
   -7.970       0.9657E-3     1.130       0.7892E-3     1.119   
   -7.960       0.9672E-3     1.130       0.7903E-3     1.119   
   -7.950       0.9687E-3     1.131       0.7914E-3     1.119   
   -7.940       0.9702E-3     1.131       0.7925E-3     1.119   
   -7.930       0.9717E-3     1.131       0.7935E-3     1.119   
   -7.920       0.9732E-3     1.131       0.7946E-3     1.119   
   -7.910       0.9747E-3     1.131       0.7957E-3     1.119   
   -7.900       0.9762E-3     1.131       0.7968E-3     1.119   
   -7.890       0.9777E-3     1.131       0.7979E-3     1.119   
   -7.880       0.9792E-3     1.131       0.7990E-3     1.119   
   -7.870       0.9807E-3     1.131       0.8001E-3     1.119   
   -7.860       0.9822E-3     1.131       0.8011E-3     1.120   
   -7.850       0.9837E-3     1.132       0.8022E-3     1.120   
   -7.840       0.9852E-3     1.132       0.8033E-3     1.120   
   -7.830       0.9868E-3     1.132       0.8044E-3     1.120   
   -7.820       0.9883E-3     1.132       0.8056E-3     1.120   
   -7.810       0.9898E-3     1.132       0.8067E-3     1.120   
   -7.800       0.9914E-3     1.132       0.8078E-3     1.120   
   -7.790       0.9929E-3     1.132       0.8089E-3     1.120   
   -7.780       0.9944E-3     1.132       0.8100E-3     1.120   
   -7.770       0.9960E-3     1.132       0.8111E-3     1.120   
   -7.760       0.9975E-3     1.132       0.8122E-3     1.120   
   -7.750       0.9991E-3     1.132       0.8134E-3     1.120   
   -7.740       0.1001E-2     1.133       0.8145E-3     1.121   
   -7.730       0.1002E-2     1.133       0.8156E-3     1.121   
   -7.720       0.1004E-2     1.133       0.8167E-3     1.121   
   -7.710       0.1005E-2     1.133       0.8179E-3     1.121   
   -7.700       0.1007E-2     1.133       0.8190E-3     1.121   
   -7.690       0.1009E-2     1.133       0.8201E-3     1.121   
   -7.680       0.1010E-2     1.133       0.8213E-3     1.121   
   -7.670       0.1012E-2     1.133       0.8224E-3     1.121   
   -7.660       0.1013E-2     1.133       0.8235E-3     1.121   
   -7.650       0.1015E-2     1.134       0.8247E-3     1.121   
   -7.640       0.1016E-2     1.134       0.8258E-3     1.121   
   -7.630       0.1018E-2     1.134       0.8270E-3     1.121   
   -7.620       0.1020E-2     1.134       0.8281E-3     1.122   
   -7.610       0.1021E-2     1.134       0.8293E-3     1.122   
   -7.600       0.1023E-2     1.134       0.8305E-3     1.122   
   -7.590       0.1025E-2     1.134       0.8316E-3     1.122   
   -7.580       0.1026E-2     1.134       0.8328E-3     1.122   
   -7.570       0.1028E-2     1.134       0.8339E-3     1.122   
   -7.560       0.1029E-2     1.134       0.8351E-3     1.122   
   -7.550       0.1031E-2     1.135       0.8363E-3     1.122   
   -7.540       0.1033E-2     1.135       0.8374E-3     1.122   
   -7.530       0.1034E-2     1.135       0.8386E-3     1.122   
   -7.520       0.1036E-2     1.135       0.8398E-3     1.122   
   -7.510       0.1038E-2     1.135       0.8410E-3     1.122   
   -7.500       0.1039E-2     1.135       0.8422E-3     1.123   
   -7.490       0.1041E-2     1.135       0.8433E-3     1.123   
   -7.480       0.1043E-2     1.135       0.8445E-3     1.123   
   -7.470       0.1044E-2     1.135       0.8457E-3     1.123   
   -7.460       0.1046E-2     1.135       0.8469E-3     1.123   
   -7.450       0.1048E-2     1.136       0.8481E-3     1.123   
   -7.440       0.1049E-2     1.136       0.8493E-3     1.123   
   -7.430       0.1051E-2     1.136       0.8505E-3     1.123   
   -7.420       0.1053E-2     1.136       0.8517E-3     1.123   
   -7.410       0.1054E-2     1.136       0.8529E-3     1.123   
   -7.400       0.1056E-2     1.136       0.8541E-3     1.123   
   -7.390       0.1058E-2     1.136       0.8553E-3     1.123   
   -7.380       0.1059E-2     1.136       0.8566E-3     1.124   
   -7.370       0.1061E-2     1.136       0.8578E-3     1.124   
   -7.360       0.1063E-2     1.137       0.8590E-3     1.124   
   -7.350       0.1065E-2     1.137       0.8602E-3     1.124   
   -7.340       0.1066E-2     1.137       0.8614E-3     1.124   
   -7.330       0.1068E-2     1.137       0.8627E-3     1.124   
   -7.320       0.1070E-2     1.137       0.8639E-3     1.124   
   -7.310       0.1071E-2     1.137       0.8651E-3     1.124   
   -7.300       0.1073E-2     1.137       0.8664E-3     1.124   
   -7.290       0.1075E-2     1.137       0.8676E-3     1.124   
   -7.280       0.1077E-2     1.137       0.8688E-3     1.124   
   -7.270       0.1078E-2     1.137       0.8701E-3     1.124   
   -7.260       0.1080E-2     1.138       0.8713E-3     1.125   
