#                                                           
#  ____  ____     _       ____    ____  ______      ___     
# |_  _||_  _|   / \     |_   \  /   _||_   _ \   ."   `.   
#   \ \  / /    / _ \      |   \/   |    | |_) | /  .-.  \  
#    \ \/ /    / ___ \     | |\  /| |    |  __". | |   | |  
#    _|  |_  _/ /   \ \_  _| |_\/_| |_  _| |__) |\  `-"  /  
#   |______||____| |____||_____||_____||_______/  `.___."   
#                                                           
#                                                           
#                                                           
#        Version 4.3.0 Revision 15338 Hash 3cdf17c          
#                      MPI+SLK Build                        
#                http://www.yambo-code.org                  
#
# Absorption @ Q(3) [iku] : 0.000000  0.000000  0.500000
#
#
# - Energies      are Teter 93(XC)
# - Wavefunctions are Teter 93(XC)
#
# - The Green`s function is Resonant -
#
#   BSK|Identifier              :7789
#      |Dimension               :96
#      |Bands                   :3 - 10
#      |Exchange           [res]: yes
#      |Correlation        [res]: yes
#      |Kernel`s coupling       : no
#      |Exchange           [cpl]: no
#      |Correlation        [cpl]: no
#      |W interaction is bare   : no
#      |ALDA kernel in R-space  : no
#      |RL vectors    [exchange]:51
#      |RL vectors [correlation]:51
#      |E/h energy range    [ev]:-1.000000 - -1.000000
#      |Coupling range     [o/o]: 100.0000 -  100.0000
#    W |Interaction is diagonal : no
#      |Matrix size             :51
#      |Bands                   :1 - 60
#      |e/h energy range    [ev]:-1.000000 - -1.000000
#      |Poles              [o/o]: 100.0000
#      |RL vectors in the sum   :3473
#      |[r,Vnl] included        : yes
#      |Field direction         :0.1000E-4  0.000000  0.000000
#      |Coulomb Cutoff          :none
#      |xc-Kernel               :none
#   RIM|RL components      [col]:0
#      |Random points      [col]:0
#
#    E/ev[1]      EPS-Im[2]    EPS-Re[3]    EPSo-Im[4]   EPSo-Re[5]
#
   -10.00       0.1664E-2     1.300       0.1522E-2     1.286   
   -9.990       0.1666E-2     1.301       0.1524E-2     1.286   
   -9.980       0.1667E-2     1.301       0.1526E-2     1.287   
   -9.970       0.1669E-2     1.301       0.1527E-2     1.287   
   -9.960       0.1671E-2     1.301       0.1529E-2     1.287   
   -9.950       0.1673E-2     1.301       0.1531E-2     1.287   
   -9.940       0.1675E-2     1.301       0.1533E-2     1.287   
   -9.930       0.1677E-2     1.302       0.1534E-2     1.287   
   -9.920       0.1679E-2     1.302       0.1536E-2     1.287   
   -9.910       0.1681E-2     1.302       0.1538E-2     1.288   
   -9.900       0.1683E-2     1.302       0.1539E-2     1.288   
   -9.890       0.1685E-2     1.302       0.1541E-2     1.288   
   -9.880       0.1687E-2     1.302       0.1543E-2     1.288   
   -9.870       0.1689E-2     1.303       0.1545E-2     1.288   
   -9.860       0.1691E-2     1.303       0.1546E-2     1.288   
   -9.850       0.1693E-2     1.303       0.1548E-2     1.289   
   -9.840       0.1694E-2     1.303       0.1550E-2     1.289   
   -9.830       0.1696E-2     1.303       0.1551E-2     1.289   
   -9.820       0.1698E-2     1.304       0.1553E-2     1.289   
   -9.810       0.1700E-2     1.304       0.1555E-2     1.289   
   -9.800       0.1702E-2     1.304       0.1557E-2     1.289   
   -9.790       0.1704E-2     1.304       0.1558E-2     1.289   
   -9.780       0.1706E-2     1.304       0.1560E-2     1.290   
   -9.770       0.1708E-2     1.304       0.1562E-2     1.290   
   -9.760       0.1710E-2     1.305       0.1564E-2     1.290   
   -9.750       0.1712E-2     1.305       0.1565E-2     1.290   
   -9.740       0.1714E-2     1.305       0.1567E-2     1.290   
   -9.730       0.1716E-2     1.305       0.1569E-2     1.290   
   -9.720       0.1718E-2     1.305       0.1571E-2     1.291   
   -9.710       0.1720E-2     1.305       0.1573E-2     1.291   
   -9.700       0.1722E-2     1.306       0.1574E-2     1.291   
   -9.690       0.1724E-2     1.306       0.1576E-2     1.291   
   -9.680       0.1726E-2     1.306       0.1578E-2     1.291   
   -9.670       0.1728E-2     1.306       0.1580E-2     1.291   
   -9.660       0.1730E-2     1.306       0.1581E-2     1.291   
   -9.650       0.1732E-2     1.306       0.1583E-2     1.292   
   -9.640       0.1734E-2     1.307       0.1585E-2     1.292   
   -9.630       0.1736E-2     1.307       0.1587E-2     1.292   
   -9.620       0.1738E-2     1.307       0.1589E-2     1.292   
   -9.610       0.1740E-2     1.307       0.1590E-2     1.292   
   -9.600       0.1742E-2     1.307       0.1592E-2     1.292   
   -9.590       0.1744E-2     1.307       0.1594E-2     1.293   
   -9.580       0.1746E-2     1.308       0.1596E-2     1.293   
   -9.570       0.1749E-2     1.308       0.1598E-2     1.293   
   -9.560       0.1751E-2     1.308       0.1599E-2     1.293   
   -9.550       0.1753E-2     1.308       0.1601E-2     1.293   
   -9.540       0.1755E-2     1.308       0.1603E-2     1.293   
   -9.530       0.1757E-2     1.309       0.1605E-2     1.294   
   -9.520       0.1759E-2     1.309       0.1607E-2     1.294   
   -9.510       0.1761E-2     1.309       0.1609E-2     1.294   
   -9.500       0.1763E-2     1.309       0.1610E-2     1.294   
   -9.490       0.1765E-2     1.309       0.1612E-2     1.294   
   -9.480       0.1767E-2     1.309       0.1614E-2     1.294   
   -9.470       0.1769E-2     1.310       0.1616E-2     1.295   
   -9.460       0.1771E-2     1.310       0.1618E-2     1.295   
   -9.450       0.1773E-2     1.310       0.1620E-2     1.295   
   -9.440       0.1776E-2     1.310       0.1622E-2     1.295   
   -9.430       0.1778E-2     1.310       0.1623E-2     1.295   
   -9.420       0.1780E-2     1.310       0.1625E-2     1.295   
   -9.410       0.1782E-2     1.311       0.1627E-2     1.295   
   -9.400       0.1784E-2     1.311       0.1629E-2     1.296   
   -9.390       0.1786E-2     1.311       0.1631E-2     1.296   
   -9.380       0.1788E-2     1.311       0.1633E-2     1.296   
   -9.370       0.1790E-2     1.311       0.1635E-2     1.296   
   -9.360       0.1792E-2     1.312       0.1637E-2     1.296   
   -9.350       0.1795E-2     1.312       0.1638E-2     1.296   
   -9.340       0.1797E-2     1.312       0.1640E-2     1.297   
   -9.330       0.1799E-2     1.312       0.1642E-2     1.297   
   -9.320       0.1801E-2     1.312       0.1644E-2     1.297   
   -9.310       0.1803E-2     1.312       0.1646E-2     1.297   
   -9.300       0.1805E-2     1.313       0.1648E-2     1.297   
   -9.290       0.1807E-2     1.313       0.1650E-2     1.297   
   -9.280       0.1810E-2     1.313       0.1652E-2     1.298   
   -9.270       0.1812E-2     1.313       0.1654E-2     1.298   
   -9.260       0.1814E-2     1.313       0.1656E-2     1.298   
   -9.250       0.1816E-2     1.314       0.1658E-2     1.298   
   -9.240       0.1818E-2     1.314       0.1659E-2     1.298   
   -9.230       0.1820E-2     1.314       0.1661E-2     1.298   
   -9.220       0.1823E-2     1.314       0.1663E-2     1.299   
   -9.210       0.1825E-2     1.314       0.1665E-2     1.299   
   -9.200       0.1827E-2     1.314       0.1667E-2     1.299   
   -9.190       0.1829E-2     1.315       0.1669E-2     1.299   
   -9.180       0.1831E-2     1.315       0.1671E-2     1.299   
   -9.170       0.1834E-2     1.315       0.1673E-2     1.299   
   -9.160       0.1836E-2     1.315       0.1675E-2     1.300   
   -9.150       0.1838E-2     1.315       0.1677E-2     1.300   
   -9.140       0.1840E-2     1.316       0.1679E-2     1.300   
   -9.130       0.1843E-2     1.316       0.1681E-2     1.300   
   -9.120       0.1845E-2     1.316       0.1683E-2     1.300   
   -9.110       0.1847E-2     1.316       0.1685E-2     1.300   
   -9.100       0.1849E-2     1.316       0.1687E-2     1.301   
   -9.090       0.1851E-2     1.316       0.1689E-2     1.301   
   -9.080       0.1854E-2     1.317       0.1691E-2     1.301   
   -9.070       0.1856E-2     1.317       0.1693E-2     1.301   
   -9.060       0.1858E-2     1.317       0.1695E-2     1.301   
   -9.050       0.1860E-2     1.317       0.1697E-2     1.301   
   -9.040       0.1863E-2     1.317       0.1699E-2     1.302   
   -9.030       0.1865E-2     1.318       0.1701E-2     1.302   
   -9.020       0.1867E-2     1.318       0.1703E-2     1.302   
   -9.010       0.1870E-2     1.318       0.1705E-2     1.302   
   -9.000       0.1872E-2     1.318       0.1707E-2     1.302   
   -8.990       0.1874E-2     1.318       0.1709E-2     1.302   
   -8.980       0.1876E-2     1.319       0.1711E-2     1.303   
   -8.970       0.1879E-2     1.319       0.1713E-2     1.303   
   -8.960       0.1881E-2     1.319       0.1715E-2     1.303   
   -8.950       0.1883E-2     1.319       0.1717E-2     1.303   
   -8.940       0.1886E-2     1.319       0.1719E-2     1.303   
   -8.930       0.1888E-2     1.319       0.1721E-2     1.304   
   -8.920       0.1890E-2     1.320       0.1723E-2     1.304   
   -8.910       0.1892E-2     1.320       0.1725E-2     1.304   
   -8.900       0.1895E-2     1.320       0.1727E-2     1.304   
   -8.890       0.1897E-2     1.320       0.1729E-2     1.304   
   -8.880       0.1899E-2     1.320       0.1731E-2     1.304   
   -8.870       0.1902E-2     1.321       0.1733E-2     1.305   
   -8.860       0.1904E-2     1.321       0.1735E-2     1.305   
   -8.850       0.1906E-2     1.321       0.1737E-2     1.305   
   -8.840       0.1909E-2     1.321       0.1740E-2     1.305   
   -8.830       0.1911E-2     1.321       0.1742E-2     1.305   
   -8.820       0.1914E-2     1.322       0.1744E-2     1.305   
   -8.810       0.1916E-2     1.322       0.1746E-2     1.306   
   -8.800       0.1918E-2     1.322       0.1748E-2     1.306   
   -8.790       0.1921E-2     1.322       0.1750E-2     1.306   
   -8.780       0.1923E-2     1.322       0.1752E-2     1.306   
   -8.770       0.1925E-2     1.322       0.1754E-2     1.306   
   -8.760       0.1928E-2     1.323       0.1756E-2     1.306   
   -8.750       0.1930E-2     1.323       0.1758E-2     1.307   
   -8.740       0.1933E-2     1.323       0.1761E-2     1.307   
   -8.730       0.1935E-2     1.323       0.1763E-2     1.307   
   -8.720       0.1937E-2     1.323       0.1765E-2     1.307   
   -8.710       0.1940E-2     1.324       0.1767E-2     1.307   
   -8.700       0.1942E-2     1.324       0.1769E-2     1.308   
   -8.690       0.1945E-2     1.324       0.1771E-2     1.308   
   -8.680       0.1947E-2     1.324       0.1773E-2     1.308   
   -8.670       0.1949E-2     1.324       0.1775E-2     1.308   
   -8.660       0.1952E-2     1.325       0.1778E-2     1.308   
   -8.650       0.1954E-2     1.325       0.1780E-2     1.308   
   -8.640       0.1957E-2     1.325       0.1782E-2     1.309   
   -8.630       0.1959E-2     1.325       0.1784E-2     1.309   
   -8.620       0.1962E-2     1.325       0.1786E-2     1.309   
   -8.610       0.1964E-2     1.326       0.1788E-2     1.309   
   -8.600       0.1967E-2     1.326       0.1791E-2     1.309   
   -8.590       0.1969E-2     1.326       0.1793E-2     1.309   
   -8.580       0.1971E-2     1.326       0.1795E-2     1.310   
   -8.570       0.1974E-2     1.326       0.1797E-2     1.310   
   -8.560       0.1976E-2     1.327       0.1799E-2     1.310   
   -8.550       0.1979E-2     1.327       0.1802E-2     1.310   
   -8.540       0.1981E-2     1.327       0.1804E-2     1.310   
   -8.530       0.1984E-2     1.327       0.1806E-2     1.311   
   -8.520       0.1986E-2     1.327       0.1808E-2     1.311   
   -8.510       0.1989E-2     1.328       0.1810E-2     1.311   
   -8.500       0.1991E-2     1.328       0.1813E-2     1.311   
   -8.490       0.1994E-2     1.328       0.1815E-2     1.311   
   -8.480       0.1996E-2     1.328       0.1817E-2     1.311   
   -8.470       0.1999E-2     1.328       0.1819E-2     1.312   
   -8.460       0.2001E-2     1.329       0.1821E-2     1.312   
   -8.450       0.2004E-2     1.329       0.1824E-2     1.312   
   -8.440       0.2006E-2     1.329       0.1826E-2     1.312   
   -8.430       0.2009E-2     1.329       0.1828E-2     1.312   
   -8.420       0.2012E-2     1.329       0.1830E-2     1.313   
   -8.410       0.2014E-2     1.330       0.1833E-2     1.313   
   -8.400       0.2017E-2     1.330       0.1835E-2     1.313   
   -8.390       0.2019E-2     1.330       0.1837E-2     1.313   
   -8.380       0.2022E-2     1.330       0.1839E-2     1.313   
   -8.370       0.2024E-2     1.330       0.1842E-2     1.313   
   -8.360       0.2027E-2     1.331       0.1844E-2     1.314   
   -8.350       0.2030E-2     1.331       0.1846E-2     1.314   
   -8.340       0.2032E-2     1.331       0.1849E-2     1.314   
   -8.330       0.2035E-2     1.331       0.1851E-2     1.314   
   -8.320       0.2037E-2     1.331       0.1853E-2     1.314   
   -8.310       0.2040E-2     1.332       0.1855E-2     1.315   
   -8.300       0.2043E-2     1.332       0.1858E-2     1.315   
   -8.290       0.2045E-2     1.332       0.1860E-2     1.315   
   -8.280       0.2048E-2     1.332       0.1862E-2     1.315   
   -8.270       0.2050E-2     1.332       0.1865E-2     1.315   
   -8.260       0.2053E-2     1.333       0.1867E-2     1.316   
   -8.250       0.2056E-2     1.333       0.1869E-2     1.316   
   -8.240       0.2058E-2     1.333       0.1872E-2     1.316   
   -8.230       0.2061E-2     1.333       0.1874E-2     1.316   
   -8.220       0.2064E-2     1.333       0.1876E-2     1.316   
   -8.210       0.2066E-2     1.334       0.1879E-2     1.316   
   -8.200       0.2069E-2     1.334       0.1881E-2     1.317   
   -8.190       0.2072E-2     1.334       0.1883E-2     1.317   
   -8.180       0.2074E-2     1.334       0.1886E-2     1.317   
   -8.170       0.2077E-2     1.334       0.1888E-2     1.317   
   -8.160       0.2080E-2     1.335       0.1890E-2     1.317   
   -8.150       0.2082E-2     1.335       0.1893E-2     1.318   
   -8.140       0.2085E-2     1.335       0.1895E-2     1.318   
   -8.130       0.2088E-2     1.335       0.1898E-2     1.318   
   -8.120       0.2090E-2     1.336       0.1900E-2     1.318   
   -8.110       0.2093E-2     1.336       0.1902E-2     1.318   
   -8.100       0.2096E-2     1.336       0.1905E-2     1.319   
   -8.090       0.2098E-2     1.336       0.1907E-2     1.319   
   -8.080       0.2101E-2     1.336       0.1910E-2     1.319   
   -8.070       0.2104E-2     1.337       0.1912E-2     1.319   
   -8.060       0.2107E-2     1.337       0.1914E-2     1.319   
   -8.050       0.2109E-2     1.337       0.1917E-2     1.319   
   -8.040       0.2112E-2     1.337       0.1919E-2     1.320   
   -8.030       0.2115E-2     1.337       0.1922E-2     1.320   
   -8.020       0.2118E-2     1.338       0.1924E-2     1.320   
   -8.010       0.2120E-2     1.338       0.1926E-2     1.320   
   -8.000       0.2123E-2     1.338       0.1929E-2     1.320   
   -7.990       0.2126E-2     1.338       0.1931E-2     1.321   
   -7.980       0.2129E-2     1.338       0.1934E-2     1.321   
   -7.970       0.2132E-2     1.339       0.1936E-2     1.321   
   -7.960       0.2134E-2     1.339       0.1939E-2     1.321   
   -7.950       0.2137E-2     1.339       0.1941E-2     1.321   
   -7.940       0.2140E-2     1.339       0.1944E-2     1.322   
   -7.930       0.2143E-2     1.340       0.1946E-2     1.322   
   -7.920       0.2146E-2     1.340       0.1949E-2     1.322   
   -7.910       0.2148E-2     1.340       0.1951E-2     1.322   
   -7.900       0.2151E-2     1.340       0.1954E-2     1.322   
   -7.890       0.2154E-2     1.340       0.1956E-2     1.323   
   -7.880       0.2157E-2     1.341       0.1959E-2     1.323   
   -7.870       0.2160E-2     1.341       0.1961E-2     1.323   
   -7.860       0.2163E-2     1.341       0.1964E-2     1.323   
   -7.850       0.2165E-2     1.341       0.1966E-2     1.323   
   -7.840       0.2168E-2     1.341       0.1969E-2     1.324   
   -7.830       0.2171E-2     1.342       0.1971E-2     1.324   
   -7.820       0.2174E-2     1.342       0.1974E-2     1.324   
   -7.810       0.2177E-2     1.342       0.1976E-2     1.324   
   -7.800       0.2180E-2     1.342       0.1979E-2     1.324   
   -7.790       0.2183E-2     1.343       0.1981E-2     1.325   
   -7.780       0.2186E-2     1.343       0.1984E-2     1.325   
   -7.770       0.2188E-2     1.343       0.1986E-2     1.325   
   -7.760       0.2191E-2     1.343       0.1989E-2     1.325   
   -7.750       0.2194E-2     1.343       0.1992E-2     1.325   
   -7.740       0.2197E-2     1.344       0.1994E-2     1.326   
   -7.730       0.2200E-2     1.344       0.1997E-2     1.326   
   -7.720       0.2203E-2     1.344       0.1999E-2     1.326   
   -7.710       0.2206E-2     1.344       0.2002E-2     1.326   
   -7.700       0.2209E-2     1.345       0.2004E-2     1.326   
   -7.690       0.2212E-2     1.345       0.2007E-2     1.327   
   -7.680       0.2215E-2     1.345       0.2010E-2     1.327   
   -7.670       0.2218E-2     1.345       0.2012E-2     1.327   
   -7.660       0.2221E-2     1.345       0.2015E-2     1.327   
   -7.650       0.2224E-2     1.346       0.2018E-2     1.327   
   -7.640       0.2227E-2     1.346       0.2020E-2     1.328   
   -7.630       0.2230E-2     1.346       0.2023E-2     1.328   
   -7.620       0.2233E-2     1.346       0.2025E-2     1.328   
   -7.610       0.2236E-2     1.347       0.2028E-2     1.328   
   -7.600       0.2239E-2     1.347       0.2031E-2     1.328   
   -7.590       0.2242E-2     1.347       0.2033E-2     1.329   
   -7.580       0.2245E-2     1.347       0.2036E-2     1.329   
   -7.570       0.2248E-2     1.347       0.2039E-2     1.329   
   -7.560       0.2251E-2     1.348       0.2041E-2     1.329   
   -7.550       0.2254E-2     1.348       0.2044E-2     1.329   
   -7.540       0.2257E-2     1.348       0.2047E-2     1.330   
   -7.530       0.2260E-2     1.348       0.2049E-2     1.330   
   -7.520       0.2263E-2     1.349       0.2052E-2     1.330   
   -7.510       0.2266E-2     1.349       0.2055E-2     1.330   
   -7.500       0.2269E-2     1.349       0.2057E-2     1.330   
   -7.490       0.2272E-2     1.349       0.2060E-2     1.331   
   -7.480       0.2275E-2     1.349       0.2063E-2     1.331   
   -7.470       0.2278E-2     1.350       0.2066E-2     1.331   
   -7.460       0.2282E-2     1.350       0.2068E-2     1.331   
   -7.450       0.2285E-2     1.350       0.2071E-2     1.331   
   -7.440       0.2288E-2     1.350       0.2074E-2     1.332   
   -7.430       0.2291E-2     1.351       0.2077E-2     1.332   
   -7.420       0.2294E-2     1.351       0.2079E-2     1.332   
   -7.410       0.2297E-2     1.351       0.2082E-2     1.332   
   -7.400       0.2300E-2     1.351       0.2085E-2     1.332   
   -7.390       0.2303E-2     1.352       0.2088E-2     1.333   
   -7.380       0.2307E-2     1.352       0.2090E-2     1.333   
   -7.370       0.2310E-2     1.352       0.2093E-2     1.333   
   -7.360       0.2313E-2     1.352       0.2096E-2     1.333   
   -7.350       0.2316E-2     1.352       0.2099E-2     1.334   
   -7.340       0.2319E-2     1.353       0.2102E-2     1.334   
   -7.330       0.2322E-2     1.353       0.2104E-2     1.334   
   -7.320       0.2326E-2     1.353       0.2107E-2     1.334   
   -7.310       0.2329E-2     1.353       0.2110E-2     1.334   
   -7.300       0.2332E-2     1.354       0.2113E-2     1.335   
   -7.290       0.2335E-2     1.354       0.2116E-2     1.335   
   -7.280       0.2338E-2     1.354       0.2118E-2     1.335   
   -7.270       0.2342E-2     1.354       0.2121E-2     1.335   
   -7.260       0.2345E-2     1.355       0.2124E-2     1.335   
