#                                                           
#  **    **    **     ****     ****  ******     *******     
# //**  **    ****   /**/**   **/** /*////**   **/////**    
#  //****    **//**  /**//** ** /** /*   /**  **     //**   
#   //**    **  //** /** //***  /** /******  /**      /**   
#    /**   **********/**  //*   /** /*//// **/**      /**   
#    /**  /**//////**/**   /    /** /*    /**//**     **    
#    /**  /**     /**/**        /** /*******  //*******     
#    //   //      // //         //  ///////    ///////      
#                                                           
#        Version 4.2.0 Revision 14319 Hash 8432f48          
#                  MPI+SLK+OpenMP Build                     
#                http://www.yambo-code.org                  
#
# EELS @ Q(1)  [q->0 direction]:0.1000E-4  0.000     0.000   
#
#
# - Energies      are Teter 93(XC)
# - Wavefunctions are Teter 93(XC)
#
# - The Green`s function is Retarded -
# - Using the Length Gauge -
# - [r,Vnl] *is* included -
#
#   BSK|Identifier              :6493
#      |Dimension               :199
#      |Bands                   :1 - 200
#      |Exchange           [res]: yes
#      |Correlation        [res]: no
#      |Kernel`s coupling       : no
#      |Exchange           [cpl]: no
#      |Correlation        [cpl]: no
#      |W interaction is bare   : no
#      |ALDA kernel in R-space  : no
#      |RL vectors    [exchange]:9045
#      |E/h energy range    [ev]:-1.000000 - -1.000000
#      |Coupling range     [o/o]: 100.0000 -  100.0000
#
#  E/ev[1]    EEL-Im[2]  EEL-Re[3]  EELo-Im[4] EELo-Re[5]
#
  0.000000  -0.000000  -0.989702  -0.000000  -0.983473
 0.1502E-1  0.2053E-6  -.9897     0.7386E-6  -.9835   
 0.3003E-1  0.4105E-6  -.9897     0.1477E-5  -.9835   
 0.4505E-1  0.6158E-6  -.9897     0.2216E-5  -.9835   
 0.6006E-1  0.8211E-6  -.9897     0.2955E-5  -.9835   
 0.7508E-1  0.1026E-5  -.9897     0.3694E-5  -.9835   
 0.9009E-1  0.1232E-5  -.9897     0.4433E-5  -.9835   
 0.1051     0.1437E-5  -.9897     0.5172E-5  -.9835   
 0.1201     0.1642E-5  -.9897     0.5912E-5  -.9835   
 0.1351     0.1848E-5  -.9897     0.6651E-5  -.9835   
 0.1502     0.2053E-5  -.9897     0.7392E-5  -.9835   
 0.1652     0.2259E-5  -.9897     0.8132E-5  -.9835   
 0.1802     0.2464E-5  -.9897     0.8872E-5  -.9835   
 0.1952     0.2670E-5  -.9897     0.9613E-5  -.9835   
 0.2102     0.2876E-5  -.9897     0.1035E-4  -.9835   
 0.2252     0.3081E-5  -.9897     0.1110E-4  -.9835   
 0.2402     0.3287E-5  -.9897     0.1184E-4  -.9835   
 0.2553     0.3493E-5  -.9897     0.1258E-4  -.9835   
 0.2703     0.3699E-5  -.9897     0.1332E-4  -.9835   
 0.2853     0.3905E-5  -.9897     0.1407E-4  -.9835   
 0.3003     0.4111E-5  -.9897     0.1481E-4  -.9835   
 0.3153     0.4317E-5  -.9897     0.1556E-4  -.9834   
 0.3303     0.4523E-5  -.9897     0.1630E-4  -.9834   
 0.3453     0.4730E-5  -.9897     0.1705E-4  -.9834   
 0.3604     0.4936E-5  -.9897     0.1780E-4  -.9834   
 0.3754     0.5143E-5  -.9897     0.1854E-4  -.9834   
 0.3904     0.5349E-5  -.9897     0.1929E-4  -.9834   
 0.4054     0.5556E-5  -.9897     0.2004E-4  -.9834   
 0.4204     0.5763E-5  -.9897     0.2079E-4  -.9834   
 0.4354     0.5970E-5  -.9897     0.2154E-4  -.9834   
 0.4505     0.6177E-5  -.9897     0.2230E-4  -.9834   
 0.4655     0.6385E-5  -.9897     0.2305E-4  -.9834   
 0.4805     0.6592E-5  -.9897     0.2380E-4  -.9834   
 0.4955     0.6800E-5  -.9897     0.2456E-4  -.9834   
 0.5105     0.7007E-5  -.9897     0.2531E-4  -.9834   
 0.5255     0.7215E-5  -.9897     0.2607E-4  -.9834   
 0.5405     0.7423E-5  -.9897     0.2683E-4  -.9834   
 0.5556     0.7631E-5  -.9897     0.2759E-4  -.9834   
 0.5706     0.7840E-5  -.9897     0.2835E-4  -.9834   
 0.5856     0.8048E-5  -.9897     0.2911E-4  -.9834   
 0.6006     0.8257E-5  -.9897     0.2987E-4  -.9834   
 0.6156     0.8466E-5  -.9897     0.3063E-4  -.9834   
 0.6306     0.8675E-5  -.9897     0.3140E-4  -.9834   
 0.6456     0.8884E-5  -.9897     0.3217E-4  -.9834   
 0.6607     0.9093E-5  -.9897     0.3293E-4  -.9834   
 0.6757     0.9303E-5  -.9897     0.3370E-4  -.9834   
 0.6907     0.9513E-5  -.9897     0.3447E-4  -.9834   
 0.7057     0.9723E-5  -.9897     0.3524E-4  -.9833   
 0.7207     0.9933E-5  -.9897     0.3602E-4  -.9833   
 0.7357     0.1014E-4  -.9897     0.3679E-4  -.9833   
 0.7508     0.1035E-4  -.9897     0.3757E-4  -.9833   
 0.7658     0.1056E-4  -.9897     0.3835E-4  -.9833   
 0.7808     0.1078E-4  -.9897     0.3913E-4  -.9833   
 0.7958     0.1099E-4  -.9897     0.3991E-4  -.9833   
 0.8108     0.1120E-4  -.9897     0.4069E-4  -.9833   
 0.8258     0.1141E-4  -.9897     0.4148E-4  -.9833   
 0.8408     0.1162E-4  -.9897     0.4226E-4  -.9833   
 0.8559     0.1184E-4  -.9897     0.4305E-4  -.9833   
 0.8709     0.1205E-4  -.9897     0.4384E-4  -.9833   
 0.8859     0.1226E-4  -.9896     0.4463E-4  -.9833   
 0.9009     0.1247E-4  -.9896     0.4542E-4  -.9833   
 0.9159     0.1269E-4  -.9896     0.4622E-4  -.9833   
 0.9309     0.1290E-4  -.9896     0.4702E-4  -.9833   
 0.9459     0.1311E-4  -.9896     0.4782E-4  -.9833   
 0.9610     0.1333E-4  -.9896     0.4862E-4  -.9832   
 0.9760     0.1354E-4  -.9896     0.4942E-4  -.9832   
 0.9910     0.1376E-4  -.9896     0.5023E-4  -.9832   
  1.006     0.1397E-4  -.9896     0.5104E-4  -.9832   
  1.021     0.1419E-4  -.9896     0.5185E-4  -.9832   
  1.036     0.1440E-4  -.9896     0.5266E-4  -.9832   
  1.051     0.1462E-4  -.9896     0.5347E-4  -.9832   
  1.066     0.1484E-4  -.9896     0.5429E-4  -.9832   
  1.081     0.1505E-4  -.9896     0.5511E-4  -.9832   
  1.096     0.1527E-4  -.9896     0.5593E-4  -.9832   
  1.111     0.1549E-4  -.9896     0.5676E-4  -.9832   
  1.126     0.1570E-4  -.9896     0.5758E-4  -.9832   
  1.141     0.1592E-4  -.9896     0.5841E-4  -.9831   
  1.156     0.1614E-4  -.9896     0.5924E-4  -.9831   
  1.171     0.1636E-4  -.9896     0.6008E-4  -.9831   
  1.186     0.1658E-4  -.9896     0.6091E-4  -.9831   
  1.201     0.1680E-4  -.9896     0.6175E-4  -.9831   
  1.216     0.1702E-4  -.9896     0.6259E-4  -.9831   
  1.231     0.1724E-4  -.9896     0.6344E-4  -.9831   
  1.246     0.1746E-4  -.9896     0.6429E-4  -.9831   
  1.261     0.1768E-4  -.9896     0.6514E-4  -.9831   
  1.276     0.1790E-4  -.9896     0.6599E-4  -.9831   
  1.291     0.1812E-4  -.9896     0.6685E-4  -.9831   
  1.306     0.1834E-4  -.9896     0.6771E-4  -.9830   
  1.321     0.1857E-4  -.9896     0.6857E-4  -.9830   
  1.336     0.1879E-4  -.9896     0.6943E-4  -.9830   
  1.351     0.1901E-4  -.9896     0.7030E-4  -.9830   
  1.366     0.1924E-4  -.9896     0.7117E-4  -.9830   
  1.381     0.1946E-4  -.9896     0.7205E-4  -.9830   
  1.396     0.1969E-4  -.9896     0.7292E-4  -.9830   
  1.411     0.1991E-4  -.9896     0.7381E-4  -.9830   
  1.426     0.2014E-4  -.9896     0.7469E-4  -.9830   
  1.441     0.2036E-4  -.9896     0.7558E-4  -.9829   
  1.456     0.2059E-4  -.9896     0.7647E-4  -.9829   
  1.471     0.2082E-4  -.9896     0.7736E-4  -.9829   
  1.486     0.2104E-4  -.9895     0.7826E-4  -.9829   
  1.502     0.2127E-4  -.9895     0.7916E-4  -.9829   
  1.517     0.2150E-4  -.9895     0.8007E-4  -.9829   
  1.532     0.2173E-4  -.9895     0.8098E-4  -.9829   
  1.547     0.2196E-4  -.9895     0.8189E-4  -.9829   
  1.562     0.2219E-4  -.9895     0.8280E-4  -.9829   
  1.577     0.2242E-4  -.9895     0.8372E-4  -.9828   
  1.592     0.2265E-4  -.9895     0.8465E-4  -.9828   
  1.607     0.2288E-4  -.9895     0.8558E-4  -.9828   
  1.622     0.2311E-4  -.9895     0.8651E-4  -.9828   
  1.637     0.2334E-4  -.9895     0.8744E-4  -.9828   
  1.652     0.2358E-4  -.9895     0.8838E-4  -.9828   
  1.667     0.2381E-4  -.9895     0.8933E-4  -.9828   
  1.682     0.2404E-4  -.9895     0.9027E-4  -.9827   
  1.697     0.2428E-4  -.9895     0.9123E-4  -.9827   
  1.712     0.2451E-4  -.9895     0.9218E-4  -.9827   
  1.727     0.2475E-4  -.9895     0.9314E-4  -.9827   
  1.742     0.2499E-4  -.9895     0.9411E-4  -.9827   
  1.757     0.2522E-4  -.9895     0.9508E-4  -.9827   
  1.772     0.2546E-4  -.9895     0.9605E-4  -.9827   
  1.787     0.2570E-4  -.9895     0.9703E-4  -.9826   
  1.802     0.2594E-4  -.9895     0.9801E-4  -.9826   
  1.817     0.2618E-4  -.9895     0.9900E-4  -.9826   
  1.832     0.2641E-4  -.9895     0.9999E-4  -.9826   
  1.847     0.2666E-4  -.9895     0.1010E-3  -.9826   
  1.862     0.2690E-4  -.9895     0.1020E-3  -.9826   
  1.877     0.2714E-4  -.9895     0.1030E-3  -.9826   
  1.892     0.2738E-4  -.9895     0.1040E-3  -.9825   
  1.907     0.2762E-4  -.9894     0.1050E-3  -.9825   
  1.922     0.2787E-4  -.9894     0.1060E-3  -.9825   
  1.937     0.2811E-4  -.9894     0.1071E-3  -.9825   
  1.952     0.2836E-4  -.9894     0.1081E-3  -.9825   
  1.967     0.2860E-4  -.9894     0.1091E-3  -.9825   
  1.982     0.2885E-4  -.9894     0.1102E-3  -.9824   
  1.997     0.2909E-4  -.9894     0.1112E-3  -.9824   
  2.012     0.2934E-4  -.9894     0.1123E-3  -.9824   
  2.027     0.2959E-4  -.9894     0.1133E-3  -.9824   
  2.042     0.2984E-4  -.9894     0.1144E-3  -.9824   
  2.057     0.3009E-4  -.9894     0.1155E-3  -.9824   
  2.072     0.3034E-4  -.9894     0.1166E-3  -.9823   
  2.087     0.3059E-4  -.9894     0.1176E-3  -.9823   
  2.102     0.3084E-4  -.9894     0.1187E-3  -.9823   
  2.117     0.3109E-4  -.9894     0.1198E-3  -.9823   
  2.132     0.3135E-4  -.9894     0.1209E-3  -.9823   
  2.147     0.3160E-4  -.9894     0.1220E-3  -.9823   
  2.162     0.3186E-4  -.9894     0.1231E-3  -.9822   
  2.177     0.3211E-4  -.9894     0.1243E-3  -.9822   
  2.192     0.3237E-4  -.9894     0.1254E-3  -.9822   
  2.207     0.3263E-4  -.9894     0.1265E-3  -.9822   
  2.222     0.3288E-4  -.9894     0.1277E-3  -.9822   
  2.237     0.3314E-4  -.9893     0.1288E-3  -.9821   
  2.252     0.3340E-4  -.9893     0.1299E-3  -.9821   
  2.267     0.3366E-4  -.9893     0.1311E-3  -.9821   
  2.282     0.3392E-4  -.9893     0.1323E-3  -.9821   
  2.297     0.3419E-4  -.9893     0.1334E-3  -.9821   
  2.312     0.3445E-4  -.9893     0.1346E-3  -.9820   
  2.327     0.3471E-4  -.9893     0.1358E-3  -.9820   
  2.342     0.3498E-4  -.9893     0.1370E-3  -.9820   
  2.357     0.3524E-4  -.9893     0.1382E-3  -.9820   
  2.372     0.3551E-4  -.9893     0.1394E-3  -.9820   
  2.387     0.3578E-4  -.9893     0.1406E-3  -.9819   
  2.402     0.3604E-4  -.9893     0.1418E-3  -.9819   
  2.417     0.3631E-4  -.9893     0.1431E-3  -.9819   
  2.432     0.3658E-4  -.9893     0.1443E-3  -.9819   
  2.447     0.3685E-4  -.9893     0.1456E-3  -.9819   
  2.462     0.3712E-4  -.9893     0.1468E-3  -.9818   
  2.477     0.3740E-4  -.9893     0.1481E-3  -.9818   
  2.492     0.3767E-4  -.9893     0.1493E-3  -.9818   
  2.508     0.3795E-4  -.9893     0.1506E-3  -.9818   
  2.523     0.3822E-4  -.9892     0.1519E-3  -.9817   
  2.538     0.3850E-4  -.9892     0.1532E-3  -.9817   
  2.553     0.3877E-4  -.9892     0.1545E-3  -.9817   
  2.568     0.3905E-4  -.9892     0.1558E-3  -.9817   
  2.583     0.3933E-4  -.9892     0.1571E-3  -.9817   
  2.598     0.3961E-4  -.9892     0.1584E-3  -.9816   
  2.613     0.3989E-4  -.9892     0.1598E-3  -.9816   
  2.628     0.4018E-4  -.9892     0.1611E-3  -.9816   
  2.643     0.4046E-4  -.9892     0.1625E-3  -.9816   
  2.658     0.4075E-4  -.9892     0.1638E-3  -.9815   
  2.673     0.4103E-4  -.9892     0.1652E-3  -.9815   
  2.688     0.4132E-4  -.9892     0.1666E-3  -.9815   
  2.703     0.4160E-4  -.9892     0.1680E-3  -.9815   
  2.718     0.4189E-4  -.9892     0.1694E-3  -.9814   
  2.733     0.4218E-4  -.9892     0.1708E-3  -.9814   
  2.748     0.4247E-4  -.9892     0.1722E-3  -.9814   
  2.763     0.4277E-4  -.9891     0.1737E-3  -.9814   
  2.778     0.4306E-4  -.9891     0.1751E-3  -.9813   
  2.793     0.4335E-4  -.9891     0.1766E-3  -.9813   
  2.808     0.4365E-4  -.9891     0.1780E-3  -.9813   
  2.823     0.4395E-4  -.9891     0.1795E-3  -.9812   
  2.838     0.4424E-4  -.9891     0.1810E-3  -.9812   
  2.853     0.4454E-4  -.9891     0.1825E-3  -.9812   
  2.868     0.4484E-4  -.9891     0.1840E-3  -.9812   
  2.883     0.4515E-4  -.9891     0.1855E-3  -.9811   
  2.898     0.4545E-4  -.9891     0.1870E-3  -.9811   
  2.913     0.4575E-4  -.9891     0.1886E-3  -.9811   
  2.928     0.4606E-4  -.9891     0.1901E-3  -.9811   
  2.943     0.4636E-4  -.9891     0.1917E-3  -.9810   
  2.958     0.4667E-4  -.9891     0.1932E-3  -.9810   
  2.973     0.4698E-4  -.9891     0.1948E-3  -.9810   
  2.988     0.4729E-4  -.9890     0.1964E-3  -.9809   
  3.003     0.4760E-4  -.9890     0.1980E-3  -.9809   
  3.018     0.4791E-4  -.9890     0.1997E-3  -.9809   
  3.033     0.4823E-4  -.9890     0.2013E-3  -.9808   
  3.048     0.4854E-4  -.9890     0.2029E-3  -.9808   
  3.063     0.4886E-4  -.9890     0.2046E-3  -.9808   
  3.078     0.4918E-4  -.9890     0.2063E-3  -.9808   
  3.093     0.4950E-4  -.9890     0.2080E-3  -.9807   
  3.108     0.4982E-4  -.9890     0.2097E-3  -.9807   
  3.123     0.5014E-4  -.9890     0.2114E-3  -.9807   
  3.138     0.5046E-4  -.9890     0.2131E-3  -.9806   
  3.153     0.5079E-4  -.9890     0.2148E-3  -.9806   
  3.168     0.5112E-4  -.9890     0.2166E-3  -.9806   
  3.183     0.5144E-4  -.9889     0.2184E-3  -.9805   
  3.198     0.5177E-4  -.9889     0.2202E-3  -.9805   
  3.213     0.5210E-4  -.9889     0.2220E-3  -.9805   
  3.228     0.5244E-4  -.9889     0.2238E-3  -.9804   
  3.243     0.5277E-4  -.9889     0.2256E-3  -.9804   
  3.258     0.5310E-4  -.9889     0.2274E-3  -.9804   
  3.273     0.5344E-4  -.9889     0.2293E-3  -.9803   
  3.288     0.5378E-4  -.9889     0.2312E-3  -.9803   
  3.303     0.5412E-4  -.9889     0.2331E-3  -.9803   
  3.318     0.5446E-4  -.9889     0.2350E-3  -.9802   
  3.333     0.5480E-4  -.9889     0.2369E-3  -.9802   
  3.348     0.5515E-4  -.9889     0.2388E-3  -.9802   
  3.363     0.5549E-4  -.9889     0.2408E-3  -.9801   
  3.378     0.5584E-4  -.9888     0.2428E-3  -.9801   
  3.393     0.5619E-4  -.9888     0.2447E-3  -.9800   
  3.408     0.5654E-4  -.9888     0.2468E-3  -.9800   
  3.423     0.5690E-4  -.9888     0.2488E-3  -.9800   
  3.438     0.5725E-4  -.9888     0.2508E-3  -.9799   
  3.453     0.5761E-4  -.9888     0.2529E-3  -.9799   
  3.468     0.5797E-4  -.9888     0.2550E-3  -.9799   
  3.483     0.5832E-4  -.9888     0.2571E-3  -.9798   
  3.498     0.5869E-4  -.9888     0.2592E-3  -.9798   
  3.514     0.5905E-4  -.9888     0.2613E-3  -.9797   
  3.529     0.5941E-4  -.9888     0.2635E-3  -.9797   
  3.544     0.5978E-4  -.9887     0.2656E-3  -.9797   
  3.559     0.6015E-4  -.9887     0.2678E-3  -.9796   
  3.574     0.6052E-4  -.9887     0.2700E-3  -.9796   
  3.589     0.6089E-4  -.9887     0.2723E-3  -.9795   
  3.604     0.6127E-4  -.9887     0.2745E-3  -.9795   
  3.619     0.6164E-4  -.9887     0.2768E-3  -.9795   
  3.634     0.6202E-4  -.9887     0.2791E-3  -.9794   
  3.649     0.6240E-4  -.9887     0.2814E-3  -.9794   
  3.664     0.6278E-4  -.9887     0.2838E-3  -.9793   
  3.679     0.6317E-4  -.9887     0.2861E-3  -.9793   
  3.694     0.6355E-4  -.9887     0.2885E-3  -.9792   
  3.709     0.6394E-4  -.9886     0.2909E-3  -.9792   
  3.724     0.6433E-4  -.9886     0.2933E-3  -.9792   
  3.739     0.6472E-4  -.9886     0.2958E-3  -.9791   
  3.754     0.6512E-4  -.9886     0.2983E-3  -.9791   
  3.769     0.6551E-4  -.9886     0.3008E-3  -.9790   
  3.784     0.6591E-4  -.9886     0.3033E-3  -.9790   
  3.799     0.6631E-4  -.9886     0.3059E-3  -.9789   
  3.814     0.6671E-4  -.9886     0.3084E-3  -.9789   
  3.829     0.6712E-4  -.9886     0.3110E-3  -.9788   
  3.844     0.6753E-4  -.9886     0.3137E-3  -.9788   
  3.859     0.6793E-4  -.9885     0.3163E-3  -.9788   
  3.874     0.6835E-4  -.9885     0.3190E-3  -.9787   
  3.889     0.6876E-4  -.9885     0.3217E-3  -.9787   
  3.904     0.6917E-4  -.9885     0.3244E-3  -.9786   
  3.919     0.6959E-4  -.9885     0.3272E-3  -.9786   
  3.934     0.7001E-4  -.9885     0.3300E-3  -.9785   
  3.949     0.7044E-4  -.9885     0.3328E-3  -.9785   
  3.964     0.7086E-4  -.9885     0.3357E-3  -.9784   
  3.979     0.7129E-4  -.9885     0.3385E-3  -.9784   
  3.994     0.7172E-4  -.9885     0.3414E-3  -.9783   
  4.009     0.7215E-4  -.9884     0.3444E-3  -.9783   
  4.024     0.7258E-4  -.9884     0.3473E-3  -.9782   
  4.039     0.7302E-4  -.9884     0.3503E-3  -.9782   
  4.054     0.7346E-4  -.9884     0.3534E-3  -.9781   
  4.069     0.7390E-4  -.9884     0.3564E-3  -.9780   
  4.084     0.7435E-4  -.9884     0.3595E-3  -.9780   
  4.099     0.7480E-4  -.9884     0.3627E-3  -.9779   
  4.114     0.7525E-4  -.9884     0.3658E-3  -.9779   
  4.129     0.7570E-4  -.9884     0.3690E-3  -.9778   
  4.144     0.7615E-4  -.9883     0.3723E-3  -.9778   
  4.159     0.7661E-4  -.9883     0.3755E-3  -.9777   
  4.174     0.7707E-4  -.9883     0.3788E-3  -.9777   
  4.189     0.7754E-4  -.9883     0.3822E-3  -.9776   
  4.204     0.7800E-4  -.9883     0.3855E-3  -.9775   
  4.219     0.7847E-4  -.9883     0.3890E-3  -.9775   
  4.234     0.7894E-4  -.9883     0.3924E-3  -.9774   
  4.249     0.7942E-4  -.9883     0.3959E-3  -.9774   
  4.264     0.7989E-4  -.9883     0.3994E-3  -.9773   
  4.279     0.8037E-4  -.9882     0.4030E-3  -.9772   
  4.294     0.8086E-4  -.9882     0.4066E-3  -.9772   
  4.309     0.8134E-4  -.9882     0.4103E-3  -.9771   
  4.324     0.8183E-4  -.9882     0.4140E-3  -.9771   
  4.339     0.8233E-4  -.9882     0.4177E-3  -.9770   
  4.354     0.8282E-4  -.9882     0.4215E-3  -.9769   
  4.369     0.8332E-4  -.9882     0.4253E-3  -.9769   
  4.384     0.8382E-4  -.9882     0.4292E-3  -.9768   
  4.399     0.8433E-4  -.9881     0.4331E-3  -.9767   
  4.414     0.8483E-4  -.9881     0.4371E-3  -.9767   
  4.429     0.8534E-4  -.9881     0.4411E-3  -.9766   
  4.444     0.8586E-4  -.9881     0.4451E-3  -.9766   
  4.459     0.8638E-4  -.9881     0.4492E-3  -.9765   
  4.474     0.8690E-4  -.9881     0.4534E-3  -.9764   
  4.489     0.8742E-4  -.9881     0.4576E-3  -.9763   
  4.505     0.8795E-4  -.9880     0.4618E-3  -.9763   
  4.520     0.8848E-4  -.9880     0.4662E-3  -.9762   
  4.535     0.8902E-4  -.9880     0.4705E-3  -.9761   
  4.550     0.8955E-4  -.9880     0.4749E-3  -.9761   
  4.565     0.9010E-4  -.9880     0.4794E-3  -.9760   
  4.580     0.9064E-4  -.9880     0.4839E-3  -.9759   
  4.595     0.9119E-4  -.9880     0.4885E-3  -.9759   
  4.610     0.9174E-4  -.9880     0.4931E-3  -.9758   
  4.625     0.9230E-4  -.9879     0.4978E-3  -.9757   
  4.640     0.9286E-4  -.9879     0.5026E-3  -.9756   
  4.655     0.9342E-4  -.9879     0.5074E-3  -.9756   
  4.670     0.9399E-4  -.9879     0.5123E-3  -.9755   
  4.685     0.9456E-4  -.9879     0.5172E-3  -.9754   
  4.700     0.9514E-4  -.9879     0.5223E-3  -.9753   
  4.715     0.9572E-4  -.9879     0.5273E-3  -.9752   
  4.730     0.9630E-4  -.9878     0.5325E-3  -.9752   
  4.745     0.9689E-4  -.9878     0.5377E-3  -.9751   
  4.760     0.9748E-4  -.9878     0.5430E-3  -.9750   
  4.775     0.9807E-4  -.9878     0.5483E-3  -.9749   
  4.790     0.9867E-4  -.9878     0.5537E-3  -.9748   
  4.805     0.9928E-4  -.9878     0.5592E-3  -.9748   
  4.820     0.9988E-4  -.9878     0.5648E-3  -.9747   
  4.835     0.1005E-3  -.9877     0.5704E-3  -.9746   
  4.850     0.1011E-3  -.9877     0.5761E-3  -.9745   
  4.865     0.1017E-3  -.9877     0.5819E-3  -.9744   
  4.880     0.1024E-3  -.9877     0.5878E-3  -.9743   
  4.895     0.1030E-3  -.9877     0.5937E-3  -.9742   
  4.910     0.1036E-3  -.9877     0.5998E-3  -.9741   
  4.925     0.1043E-3  -.9876     0.6059E-3  -.9741   
  4.940     0.1049E-3  -.9876     0.6121E-3  -.9740   
  4.955     0.1056E-3  -.9876     0.6184E-3  -.9739   
  4.970     0.1062E-3  -.9876     0.6248E-3  -.9738   
  4.985     0.1069E-3  -.9876     0.6313E-3  -.9737   
  5.000     0.1075E-3  -.9876     0.6378E-3  -.9736   
