#                                                           
#  __  __   ________   ___ __ __    _______   ______        
# /_/\/_/\ /_______/\ /__//_//_/\ /_______/\ /_____/\       
# \ \ \ \ \\::: _  \ \\::\| \| \ \\::: _  \ \\:::_ \ \      
#  \:\_\ \ \\::(_)  \ \\:.      \ \\::(_)  \/_\:\ \ \ \     
#   \::::_\/ \:: __  \ \\:.\-/\  \ \\::  _  \ \\:\ \ \ \    
#     \::\ \  \:.\ \  \ \\. \  \  \ \\::(_)  \ \\:\_\ \ \   
#      \__\/   \__\/\__\/ \__\/ \__\/ \_______\/ \_____\/   
#                                                           
#                                                           
#        Version 4.2.0 Revision 14319 Hash 8432f48          
#                  MPI+SLK+OpenMP Build                     
#                http://www.yambo-code.org                  
#
# EELS @ Q(1)  [q->0 direction]:0.1000E-4  0.000     0.000   
#
#
# - Energies      are Teter 93(XC)+Scissor
# - Wavefunctions are Teter 93(XC)
#
# - The Green`s function is Retarded -
# - Using the Length Gauge -
# - [r,Vnl] *is* included -
#
#   BSK|Identifier              :3030
#      |Dimension               :69
#      |Bands                   :1 - 70
#      |Exchange           [res]: yes
#      |Correlation        [res]: yes
#      |Kernel`s coupling       : no
#      |Exchange           [cpl]: no
#      |Correlation        [cpl]: no
#      |W interaction is bare   : no
#      |ALDA kernel in R-space  : no
#      |RL vectors    [exchange]:437
#      |RL vectors [correlation]:619
#      |E/h energy range    [ev]:-1.000000 - -1.000000
#      |Coupling range     [o/o]: 100.0000 -  100.0000
#    W |Interaction is diagonal : no
#      |Matrix size             :1503
#      |Bands                   :1 - 250
#      |e/h energy range    [ev]:-1.000000 - -1.000000
#      |Poles              [o/o]: 100.0000
#      |RL vectors in the sum   :9939
#      |[r,Vnl] included        : yes
#      |Field direction         :0.1000E-4  0.000000  0.000000
#      |Coulomb Cutoff          :none
#      |xc-Kernel               :none
#   RIM|RL components      [col]:0
#      |Random points      [col]:0
#
#  E/ev[1]    EEL-Im[2]  EEL-Re[3]  EELo-Im[4] EELo-Re[5]
#
  0.000000  -0.000000  -0.985636  -0.000000  -0.991433
 0.2002E-1  0.6473E-6  -.9856     0.1371E-6  -.9914   
 0.4004E-1  0.1295E-5  -.9856     0.2742E-6  -.9914   
 0.6006E-1  0.1942E-5  -.9856     0.4113E-6  -.9914   
 0.8008E-1  0.2589E-5  -.9856     0.5484E-6  -.9914   
 0.1001     0.3237E-5  -.9856     0.6855E-6  -.9914   
 0.1201     0.3885E-5  -.9856     0.8226E-6  -.9914   
 0.1401     0.4533E-5  -.9856     0.9598E-6  -.9914   
 0.1602     0.5181E-5  -.9856     0.1097E-5  -.9914   
 0.1802     0.5830E-5  -.9856     0.1234E-5  -.9914   
 0.2002     0.6478E-5  -.9856     0.1371E-5  -.9914   
 0.2202     0.7128E-5  -.9856     0.1509E-5  -.9914   
 0.2402     0.7777E-5  -.9856     0.1646E-5  -.9914   
 0.2603     0.8427E-5  -.9856     0.1783E-5  -.9914   
 0.2803     0.9078E-5  -.9856     0.1920E-5  -.9914   
 0.3003     0.9729E-5  -.9856     0.2058E-5  -.9914   
 0.3203     0.1038E-4  -.9856     0.2195E-5  -.9914   
 0.3403     0.1103E-4  -.9856     0.2333E-5  -.9914   
 0.3604     0.1168E-4  -.9856     0.2470E-5  -.9914   
 0.3804     0.1234E-4  -.9856     0.2608E-5  -.9914   
 0.4004     0.1299E-4  -.9856     0.2745E-5  -.9914   
 0.4204     0.1365E-4  -.9856     0.2883E-5  -.9914   
 0.4404     0.1430E-4  -.9856     0.3021E-5  -.9914   
 0.4605     0.1496E-4  -.9856     0.3158E-5  -.9914   
 0.4805     0.1562E-4  -.9856     0.3296E-5  -.9914   
 0.5005     0.1627E-4  -.9856     0.3434E-5  -.9914   
 0.5205     0.1693E-4  -.9856     0.3572E-5  -.9914   
 0.5405     0.1759E-4  -.9856     0.3710E-5  -.9914   
 0.5606     0.1825E-4  -.9856     0.3848E-5  -.9914   
 0.5806     0.1891E-4  -.9856     0.3986E-5  -.9914   
 0.6006     0.1958E-4  -.9856     0.4125E-5  -.9914   
 0.6206     0.2024E-4  -.9856     0.4263E-5  -.9914   
 0.6406     0.2090E-4  -.9856     0.4401E-5  -.9914   
 0.6607     0.2157E-4  -.9856     0.4540E-5  -.9914   
 0.6807     0.2224E-4  -.9856     0.4678E-5  -.9914   
 0.7007     0.2291E-4  -.9856     0.4817E-5  -.9914   
 0.7207     0.2358E-4  -.9856     0.4956E-5  -.9914   
 0.7407     0.2425E-4  -.9855     0.5095E-5  -.9914   
 0.7608     0.2492E-4  -.9855     0.5234E-5  -.9914   
 0.7808     0.2559E-4  -.9855     0.5373E-5  -.9914   
 0.8008     0.2627E-4  -.9855     0.5512E-5  -.9914   
 0.8208     0.2694E-4  -.9855     0.5651E-5  -.9914   
 0.8408     0.2762E-4  -.9855     0.5791E-5  -.9914   
 0.8609     0.2830E-4  -.9855     0.5930E-5  -.9914   
 0.8809     0.2898E-4  -.9855     0.6070E-5  -.9914   
 0.9009     0.2967E-4  -.9855     0.6209E-5  -.9914   
 0.9209     0.3035E-4  -.9855     0.6349E-5  -.9914   
 0.9409     0.3104E-4  -.9855     0.6489E-5  -.9914   
 0.9610     0.3172E-4  -.9855     0.6629E-5  -.9914   
 0.9810     0.3241E-4  -.9855     0.6770E-5  -.9914   
  1.001     0.3311E-4  -.9855     0.6910E-5  -.9914   
  1.021     0.3380E-4  -.9855     0.7050E-5  -.9914   
  1.041     0.3449E-4  -.9855     0.7191E-5  -.9914   
  1.061     0.3519E-4  -.9855     0.7332E-5  -.9914   
  1.081     0.3589E-4  -.9854     0.7473E-5  -.9914   
  1.101     0.3659E-4  -.9854     0.7614E-5  -.9914   
  1.121     0.3729E-4  -.9854     0.7755E-5  -.9914   
  1.141     0.3800E-4  -.9854     0.7896E-5  -.9914   
  1.161     0.3871E-4  -.9854     0.8038E-5  -.9914   
  1.181     0.3942E-4  -.9854     0.8180E-5  -.9914   
  1.201     0.4013E-4  -.9854     0.8322E-5  -.9914   
  1.221     0.4084E-4  -.9854     0.8464E-5  -.9914   
  1.241     0.4156E-4  -.9854     0.8606E-5  -.9914   
  1.261     0.4228E-4  -.9854     0.8748E-5  -.9914   
  1.281     0.4300E-4  -.9854     0.8891E-5  -.9914   
  1.301     0.4372E-4  -.9854     0.9033E-5  -.9914   
  1.321     0.4445E-4  -.9853     0.9176E-5  -.9914   
  1.341     0.4518E-4  -.9853     0.9319E-5  -.9914   
  1.361     0.4591E-4  -.9853     0.9462E-5  -.9914   
  1.381     0.4664E-4  -.9853     0.9606E-5  -.9914   
  1.401     0.4738E-4  -.9853     0.9749E-5  -.9914   
  1.421     0.4812E-4  -.9853     0.9893E-5  -.9914   
  1.441     0.4886E-4  -.9853     0.1004E-4  -.9914   
  1.461     0.4961E-4  -.9853     0.1018E-4  -.9914   
  1.481     0.5035E-4  -.9853     0.1033E-4  -.9914   
  1.502     0.5111E-4  -.9853     0.1047E-4  -.9914   
  1.522     0.5186E-4  -.9853     0.1062E-4  -.9914   
  1.542     0.5262E-4  -.9852     0.1076E-4  -.9914   
  1.562     0.5338E-4  -.9852     0.1091E-4  -.9913   
  1.582     0.5414E-4  -.9852     0.1105E-4  -.9913   
  1.602     0.5491E-4  -.9852     0.1120E-4  -.9913   
  1.622     0.5568E-4  -.9852     0.1134E-4  -.9913   
  1.642     0.5645E-4  -.9852     0.1149E-4  -.9913   
  1.662     0.5722E-4  -.9852     0.1164E-4  -.9913   
  1.682     0.5800E-4  -.9852     0.1178E-4  -.9913   
  1.702     0.5879E-4  -.9852     0.1193E-4  -.9913   
  1.722     0.5957E-4  -.9851     0.1208E-4  -.9913   
  1.742     0.6036E-4  -.9851     0.1222E-4  -.9913   
  1.762     0.6116E-4  -.9851     0.1237E-4  -.9913   
  1.782     0.6196E-4  -.9851     0.1252E-4  -.9913   
  1.802     0.6276E-4  -.9851     0.1267E-4  -.9913   
  1.822     0.6356E-4  -.9851     0.1281E-4  -.9913   
  1.842     0.6437E-4  -.9851     0.1296E-4  -.9913   
  1.862     0.6518E-4  -.9851     0.1311E-4  -.9913   
  1.882     0.6600E-4  -.9850     0.1326E-4  -.9913   
  1.902     0.6682E-4  -.9850     0.1341E-4  -.9913   
  1.922     0.6765E-4  -.9850     0.1356E-4  -.9913   
  1.942     0.6848E-4  -.9850     0.1371E-4  -.9913   
  1.962     0.6931E-4  -.9850     0.1386E-4  -.9913   
  1.982     0.7015E-4  -.9850     0.1401E-4  -.9913   
  2.002     0.7099E-4  -.9850     0.1416E-4  -.9913   
  2.022     0.7183E-4  -.9849     0.1431E-4  -.9913   
  2.042     0.7268E-4  -.9849     0.1446E-4  -.9913   
  2.062     0.7354E-4  -.9849     0.1462E-4  -.9913   
  2.082     0.7440E-4  -.9849     0.1477E-4  -.9913   
  2.102     0.7526E-4  -.9849     0.1492E-4  -.9913   
  2.122     0.7613E-4  -.9849     0.1507E-4  -.9913   
  2.142     0.7701E-4  -.9849     0.1522E-4  -.9913   
  2.162     0.7789E-4  -.9848     0.1538E-4  -.9913   
  2.182     0.7877E-4  -.9848     0.1553E-4  -.9913   
  2.202     0.7966E-4  -.9848     0.1569E-4  -.9913   
  2.222     0.8055E-4  -.9848     0.1584E-4  -.9913   
  2.242     0.8145E-4  -.9848     0.1599E-4  -.9913   
  2.262     0.8236E-4  -.9848     0.1615E-4  -.9913   
  2.282     0.8327E-4  -.9847     0.1630E-4  -.9913   
  2.302     0.8418E-4  -.9847     0.1646E-4  -.9912   
  2.322     0.8510E-4  -.9847     0.1661E-4  -.9912   
  2.342     0.8603E-4  -.9847     0.1677E-4  -.9912   
  2.362     0.8696E-4  -.9847     0.1693E-4  -.9912   
  2.382     0.8790E-4  -.9847     0.1708E-4  -.9912   
  2.402     0.8884E-4  -.9846     0.1724E-4  -.9912   
  2.422     0.8979E-4  -.9846     0.1740E-4  -.9912   
  2.442     0.9075E-4  -.9846     0.1756E-4  -.9912   
  2.462     0.9171E-4  -.9846     0.1771E-4  -.9912   
  2.482     0.9267E-4  -.9846     0.1787E-4  -.9912   
  2.503     0.9365E-4  -.9845     0.1803E-4  -.9912   
  2.523     0.9463E-4  -.9845     0.1819E-4  -.9912   
  2.543     0.9561E-4  -.9845     0.1835E-4  -.9912   
  2.563     0.9661E-4  -.9845     0.1851E-4  -.9912   
  2.583     0.9760E-4  -.9845     0.1867E-4  -.9912   
  2.603     0.9861E-4  -.9845     0.1883E-4  -.9912   
  2.623     0.9962E-4  -.9844     0.1899E-4  -.9912   
  2.643     0.1006E-3  -.9844     0.1916E-4  -.9912   
  2.663     0.1017E-3  -.9844     0.1932E-4  -.9912   
  2.683     0.1027E-3  -.9844     0.1948E-4  -.9912   
  2.703     0.1037E-3  -.9844     0.1964E-4  -.9912   
  2.723     0.1048E-3  -.9843     0.1981E-4  -.9912   
  2.743     0.1058E-3  -.9843     0.1997E-4  -.9912   
  2.763     0.1069E-3  -.9843     0.2013E-4  -.9912   
  2.783     0.1080E-3  -.9843     0.2030E-4  -.9912   
  2.803     0.1091E-3  -.9842     0.2046E-4  -.9912   
  2.823     0.1101E-3  -.9842     0.2063E-4  -.9912   
  2.843     0.1112E-3  -.9842     0.2080E-4  -.9911   
  2.863     0.1123E-3  -.9842     0.2096E-4  -.9911   
  2.883     0.1134E-3  -.9842     0.2113E-4  -.9911   
  2.903     0.1146E-3  -.9841     0.2130E-4  -.9911   
  2.923     0.1157E-3  -.9841     0.2146E-4  -.9911   
  2.943     0.1168E-3  -.9841     0.2163E-4  -.9911   
  2.963     0.1180E-3  -.9841     0.2180E-4  -.9911   
  2.983     0.1191E-3  -.9840     0.2197E-4  -.9911   
  3.003     0.1203E-3  -.9840     0.2214E-4  -.9911   
  3.023     0.1214E-3  -.9840     0.2231E-4  -.9911   
  3.043     0.1226E-3  -.9840     0.2248E-4  -.9911   
  3.063     0.1238E-3  -.9839     0.2265E-4  -.9911   
  3.083     0.1250E-3  -.9839     0.2282E-4  -.9911   
  3.103     0.1262E-3  -.9839     0.2299E-4  -.9911   
  3.123     0.1274E-3  -.9839     0.2317E-4  -.9911   
  3.143     0.1286E-3  -.9838     0.2334E-4  -.9911   
  3.163     0.1299E-3  -.9838     0.2351E-4  -.9911   
  3.183     0.1311E-3  -.9838     0.2369E-4  -.9911   
  3.203     0.1324E-3  -.9838     0.2386E-4  -.9911   
  3.223     0.1336E-3  -.9837     0.2404E-4  -.9911   
  3.243     0.1349E-3  -.9837     0.2421E-4  -.9911   
  3.263     0.1362E-3  -.9837     0.2439E-4  -.9911   
  3.283     0.1375E-3  -.9837     0.2456E-4  -.9910   
  3.303     0.1388E-3  -.9836     0.2474E-4  -.9910   
  3.323     0.1401E-3  -.9836     0.2492E-4  -.9910   
  3.343     0.1415E-3  -.9836     0.2510E-4  -.9910   
  3.363     0.1428E-3  -.9835     0.2528E-4  -.9910   
  3.383     0.1441E-3  -.9835     0.2546E-4  -.9910   
  3.403     0.1455E-3  -.9835     0.2564E-4  -.9910   
  3.423     0.1469E-3  -.9835     0.2582E-4  -.9910   
  3.443     0.1483E-3  -.9834     0.2600E-4  -.9910   
  3.463     0.1497E-3  -.9834     0.2618E-4  -.9910   
  3.483     0.1511E-3  -.9834     0.2636E-4  -.9910   
  3.504     0.1525E-3  -.9833     0.2654E-4  -.9910   
  3.524     0.1539E-3  -.9833     0.2673E-4  -.9910   
  3.544     0.1554E-3  -.9833     0.2691E-4  -.9910   
  3.564     0.1569E-3  -.9832     0.2710E-4  -.9910   
  3.584     0.1583E-3  -.9832     0.2728E-4  -.9910   
  3.604     0.1598E-3  -.9832     0.2747E-4  -.9910   
  3.624     0.1613E-3  -.9831     0.2765E-4  -.9910   
  3.644     0.1628E-3  -.9831     0.2784E-4  -.9910   
  3.664     0.1644E-3  -.9831     0.2803E-4  -.9909   
  3.684     0.1659E-3  -.9830     0.2822E-4  -.9909   
  3.704     0.1675E-3  -.9830     0.2841E-4  -.9909   
  3.724     0.1691E-3  -.9830     0.2860E-4  -.9909   
  3.744     0.1706E-3  -.9829     0.2879E-4  -.9909   
  3.764     0.1722E-3  -.9829     0.2898E-4  -.9909   
  3.784     0.1739E-3  -.9829     0.2917E-4  -.9909   
  3.804     0.1755E-3  -.9828     0.2936E-4  -.9909   
  3.824     0.1772E-3  -.9828     0.2955E-4  -.9909   
  3.844     0.1788E-3  -.9828     0.2975E-4  -.9909   
  3.864     0.1805E-3  -.9827     0.2994E-4  -.9909   
  3.884     0.1822E-3  -.9827     0.3014E-4  -.9909   
  3.904     0.1839E-3  -.9827     0.3033E-4  -.9909   
  3.924     0.1857E-3  -.9826     0.3053E-4  -.9909   
  3.944     0.1874E-3  -.9826     0.3073E-4  -.9909   
  3.964     0.1892E-3  -.9826     0.3093E-4  -.9909   
  3.984     0.1910E-3  -.9825     0.3112E-4  -.9909   
  4.004     0.1928E-3  -.9825     0.3132E-4  -.9908   
  4.024     0.1946E-3  -.9824     0.3152E-4  -.9908   
  4.044     0.1964E-3  -.9824     0.3172E-4  -.9908   
  4.064     0.1983E-3  -.9824     0.3193E-4  -.9908   
  4.084     0.2002E-3  -.9823     0.3213E-4  -.9908   
  4.104     0.2021E-3  -.9823     0.3233E-4  -.9908   
  4.124     0.2040E-3  -.9822     0.3254E-4  -.9908   
  4.144     0.2059E-3  -.9822     0.3274E-4  -.9908   
  4.164     0.2079E-3  -.9822     0.3295E-4  -.9908   
  4.184     0.2099E-3  -.9821     0.3315E-4  -.9908   
  4.204     0.2119E-3  -.9821     0.3336E-4  -.9908   
  4.224     0.2139E-3  -.9820     0.3357E-4  -.9908   
  4.244     0.2159E-3  -.9820     0.3378E-4  -.9908   
  4.264     0.2180E-3  -.9819     0.3399E-4  -.9908   
  4.284     0.2201E-3  -.9819     0.3420E-4  -.9908   
  4.304     0.2222E-3  -.9819     0.3441E-4  -.9907   
  4.324     0.2243E-3  -.9818     0.3462E-4  -.9907   
  4.344     0.2265E-3  -.9818     0.3483E-4  -.9907   
  4.364     0.2287E-3  -.9817     0.3504E-4  -.9907   
  4.384     0.2309E-3  -.9817     0.3526E-4  -.9907   
  4.404     0.2331E-3  -.9816     0.3547E-4  -.9907   
  4.424     0.2354E-3  -.9816     0.3569E-4  -.9907   
  4.444     0.2376E-3  -.9815     0.3591E-4  -.9907   
  4.464     0.2400E-3  -.9815     0.3613E-4  -.9907   
  4.484     0.2423E-3  -.9814     0.3635E-4  -.9907   
  4.505     0.2446E-3  -.9814     0.3656E-4  -.9907   
  4.525     0.2470E-3  -.9813     0.3679E-4  -.9907   
  4.545     0.2495E-3  -.9813     0.3701E-4  -.9907   
  4.565     0.2519E-3  -.9812     0.3723E-4  -.9907   
  4.585     0.2544E-3  -.9812     0.3745E-4  -.9906   
  4.605     0.2569E-3  -.9811     0.3768E-4  -.9906   
  4.625     0.2594E-3  -.9811     0.3790E-4  -.9906   
  4.645     0.2620E-3  -.9810     0.3813E-4  -.9906   
  4.665     0.2646E-3  -.9810     0.3836E-4  -.9906   
  4.685     0.2672E-3  -.9809     0.3858E-4  -.9906   
  4.705     0.2698E-3  -.9809     0.3881E-4  -.9906   
  4.725     0.2725E-3  -.9808     0.3904E-4  -.9906   
  4.745     0.2753E-3  -.9808     0.3928E-4  -.9906   
  4.765     0.2780E-3  -.9807     0.3951E-4  -.9906   
  4.785     0.2808E-3  -.9807     0.3974E-4  -.9906   
  4.805     0.2836E-3  -.9806     0.3998E-4  -.9906   
  4.825     0.2865E-3  -.9805     0.4021E-4  -.9906   
  4.845     0.2894E-3  -.9805     0.4045E-4  -.9905   
  4.865     0.2923E-3  -.9804     0.4068E-4  -.9905   
  4.885     0.2953E-3  -.9804     0.4092E-4  -.9905   
  4.905     0.2983E-3  -.9803     0.4116E-4  -.9905   
  4.925     0.3013E-3  -.9802     0.4140E-4  -.9905   
  4.945     0.3044E-3  -.9802     0.4164E-4  -.9905   
  4.965     0.3076E-3  -.9801     0.4189E-4  -.9905   
  4.985     0.3107E-3  -.9801     0.4213E-4  -.9905   
  5.005     0.3139E-3  -.9800     0.4238E-4  -.9905   
  5.025     0.3172E-3  -.9799     0.4262E-4  -.9905   
  5.045     0.3205E-3  -.9799     0.4287E-4  -.9905   
  5.065     0.3238E-3  -.9798     0.4312E-4  -.9905   
  5.085     0.3272E-3  -.9797     0.4337E-4  -.9904   
  5.105     0.3306E-3  -.9797     0.4362E-4  -.9904   
  5.125     0.3341E-3  -.9796     0.4387E-4  -.9904   
  5.145     0.3376E-3  -.9795     0.4412E-4  -.9904   
  5.165     0.3412E-3  -.9795     0.4438E-4  -.9904   
  5.185     0.3448E-3  -.9794     0.4463E-4  -.9904   
  5.205     0.3485E-3  -.9793     0.4489E-4  -.9904   
  5.225     0.3522E-3  -.9793     0.4514E-4  -.9904   
  5.245     0.3560E-3  -.9792     0.4540E-4  -.9904   
  5.265     0.3598E-3  -.9791     0.4566E-4  -.9904   
  5.285     0.3637E-3  -.9791     0.4593E-4  -.9904   
  5.305     0.3676E-3  -.9790     0.4619E-4  -.9903   
  5.325     0.3716E-3  -.9789     0.4645E-4  -.9903   
  5.345     0.3756E-3  -.9788     0.4672E-4  -.9903   
  5.365     0.3797E-3  -.9788     0.4698E-4  -.9903   
  5.385     0.3839E-3  -.9787     0.4725E-4  -.9903   
  5.405     0.3881E-3  -.9786     0.4752E-4  -.9903   
  5.425     0.3924E-3  -.9785     0.4779E-4  -.9903   
  5.445     0.3968E-3  -.9784     0.4806E-4  -.9903   
  5.465     0.4012E-3  -.9784     0.4834E-4  -.9903   
  5.485     0.4057E-3  -.9783     0.4861E-4  -.9903   
  5.506     0.4102E-3  -.9782     0.4889E-4  -.9903   
  5.526     0.4148E-3  -.9781     0.4916E-4  -.9902   
  5.546     0.4195E-3  -.9780     0.4944E-4  -.9902   
  5.566     0.4243E-3  -.9780     0.4972E-4  -.9902   
  5.586     0.4291E-3  -.9779     0.5000E-4  -.9902   
  5.606     0.4340E-3  -.9778     0.5029E-4  -.9902   
  5.626     0.4390E-3  -.9777     0.5057E-4  -.9902   
  5.646     0.4441E-3  -.9776     0.5086E-4  -.9902   
  5.666     0.4492E-3  -.9775     0.5114E-4  -.9902   
  5.686     0.4544E-3  -.9774     0.5143E-4  -.9902   
  5.706     0.4597E-3  -.9773     0.5172E-4  -.9902   
  5.726     0.4651E-3  -.9772     0.5201E-4  -.9901   
  5.746     0.4706E-3  -.9772     0.5231E-4  -.9901   
  5.766     0.4762E-3  -.9771     0.5260E-4  -.9901   
  5.786     0.4818E-3  -.9770     0.5290E-4  -.9901   
  5.806     0.4876E-3  -.9769     0.5319E-4  -.9901   
  5.826     0.4934E-3  -.9768     0.5349E-4  -.9901   
  5.846     0.4993E-3  -.9767     0.5380E-4  -.9901   
  5.866     0.5054E-3  -.9766     0.5410E-4  -.9901   
  5.886     0.5115E-3  -.9765     0.5440E-4  -.9901   
  5.906     0.5178E-3  -.9764     0.5471E-4  -.9900   
  5.926     0.5241E-3  -.9763     0.5501E-4  -.9900   
  5.946     0.5306E-3  -.9762     0.5532E-4  -.9900   
  5.966     0.5371E-3  -.9760     0.5563E-4  -.9900   
  5.986     0.5438E-3  -.9759     0.5595E-4  -.9900   
  6.006     0.5506E-3  -.9758     0.5626E-4  -.9900   
  6.026     0.5575E-3  -.9757     0.5658E-4  -.9900   
  6.046     0.5646E-3  -.9756     0.5689E-4  -.9900   
  6.066     0.5717E-3  -.9755     0.5721E-4  -.9900   
  6.086     0.5790E-3  -.9754     0.5753E-4  -.9899   
  6.106     0.5864E-3  -.9753     0.5786E-4  -.9899   
  6.126     0.5940E-3  -.9751     0.5818E-4  -.9899   
  6.146     0.6017E-3  -.9750     0.5851E-4  -.9899   
  6.166     0.6095E-3  -.9749     0.5884E-4  -.9899   
  6.186     0.6175E-3  -.9748     0.5917E-4  -.9899   
  6.206     0.6256E-3  -.9747     0.5950E-4  -.9899   
  6.226     0.6339E-3  -.9745     0.5983E-4  -.9899   
  6.246     0.6423E-3  -.9744     0.6017E-4  -.9898   
  6.266     0.6509E-3  -.9743     0.6050E-4  -.9898   
  6.286     0.6597E-3  -.9741     0.6084E-4  -.9898   
  6.306     0.6686E-3  -.9740     0.6118E-4  -.9898   
  6.326     0.6777E-3  -.9739     0.6153E-4  -.9898   
  6.346     0.6869E-3  -.9737     0.6187E-4  -.9898   
  6.366     0.6964E-3  -.9736     0.6222E-4  -.9898   
  6.386     0.7060E-3  -.9735     0.6257E-4  -.9898   
  6.406     0.7159E-3  -.9733     0.6292E-4  -.9898   
  6.426     0.7259E-3  -.9732     0.6327E-4  -.9897   
  6.446     0.7361E-3  -.9730     0.6363E-4  -.9897   
  6.466     0.7465E-3  -.9729     0.6399E-4  -.9897   
