#                                                           
#  **    **    **     ****     ****  ******     *******     
# //**  **    ****   /**/**   **/** /*////**   **/////**    
#  //****    **//**  /**//** ** /** /*   /**  **     //**   
#   //**    **  //** /** //***  /** /******  /**      /**   
#    /**   **********/**  //*   /** /*//// **/**      /**   
#    /**  /**//////**/**   /    /** /*    /**//**     **    
#    /**  /**     /**/**        /** /*******  //*******     
#    //   //      // //         //  ///////    ///////      
#                                                           
#        Version 4.2.0 Revision 14544 Hash 1911cc9          
#                      MPI+SLK Build                        
#                http://www.yambo-code.org                  
#
# Absorption @ Q(1) [q->0 direction] :0.1000E-4  0.000     0.000   
#
#
# - Energies      are  E < 08_cohsex_eq/ndb.QP + Fitted E
# - Wavefunctions are Slater exchange(X)+Perdew & Zunger(C)
#
# - The Green`s function is Retarded -
# - Using the Length Gauge -
# - [r,Vnl] *is* included -
#
#   BSK|Identifier              :5436
#      |Dimension               :100
#      |Bands                   :2 - 7
#      |Exchange           [res]: yes
#      |Correlation        [res]: yes
#      |Kernel`s coupling       : no
#      |Exchange           [cpl]: no
#      |Correlation        [cpl]: no
#      |W interaction is bare   : no
#      |ALDA kernel in R-space  : no
#      |RL vectors    [exchange]:531
#      |RL vectors [correlation]:59
#      |E/h energy range    [ev]:-1.000000 - -1.000000
#      |Coupling range     [o/o]: 100.0000 -  100.0000
#    W |Interaction is diagonal : no
#      |Matrix size             :59
#      |Bands                   :1 - 8
#      |e/h energy range    [ev]:-1.000000 - -1.000000
#      |Poles              [o/o]: 100.0000
#      |RL vectors in the sum   :387
#      |[r,Vnl] included        : yes
#      |Field direction         :0.1000E-4  0.000000  0.000000
#      |Coulomb Cutoff          :none
#      |xc-Kernel               :none
#   RIM|RL components      [col]:0
#      |Random points      [col]:0
#  
#   Haydock|Accuracy (requested) [o/o]:  0.02000
#          |Accuracy (reached)   [o/o]:  0.01382
#          |Iteration                 :35
#
#    E/ev[1]      EPS-Im[2]    EPS-Re[3]    EPSo-Im[4]   EPSo-Re[5]   EPS`-Im[6]   EPS`-Re[7]
#
     0.00000      0.00000     28.26827      0.00000     24.15086      0.00000     28.26827
   0.2004E-1    0.6973E-2     28.27       0.4279E-2     24.15       0.6973E-2     28.27   
   0.4008E-1    0.1395E-1     28.27       0.8559E-2     24.15       0.1395E-1     28.27   
   0.6012E-1    0.2093E-1     28.27       0.1284E-1     24.15       0.2093E-1     28.27   
   0.8016E-1    0.2791E-1     28.28       0.1713E-1     24.16       0.2791E-1     28.28   
   0.1002       0.3491E-1     28.29       0.2142E-1     24.16       0.3491E-1     28.29   
   0.1202       0.4191E-1     28.29       0.2571E-1     24.17       0.4191E-1     28.29   
     0.14028      0.04893     28.30246      0.03001     24.17185      0.04893     28.30246
     0.16032      0.05597     28.31294      0.03432     24.17828      0.05597     28.31294
     0.18036      0.06302     28.32483      0.03863     24.18557      0.06302     28.32483
     0.20040      0.07010     28.33813      0.04296     24.19374      0.07010     28.33813
     0.22044      0.07719     28.35285      0.04729     24.20276      0.07719     28.35285
     0.24048      0.08431     28.36899      0.05164     24.21266      0.08431     28.36899
     0.26052      0.09146     28.38656      0.05599     24.22342      0.09146     28.38656
     0.28056      0.09864     28.40555      0.06037     24.23505      0.09864     28.40555
     0.30060      0.10584     28.42599      0.06475     24.24756      0.10584     28.42599
     0.32064      0.11309     28.44786      0.06915     24.26096      0.11309     28.44786
     0.34068      0.12037     28.47119      0.07357     24.27523      0.12037     28.47119
     0.36072      0.12769     28.49598      0.07800     24.29038      0.12769     28.49598
     0.38076      0.13505     28.52223      0.08246     24.30643      0.13505     28.52223
     0.40080      0.14245     28.54996      0.08693     24.32337      0.14245     28.54996
     0.42084      0.14990     28.57917      0.09142     24.34120      0.14990     28.57917
     0.44088      0.15740     28.60988      0.09594     24.35994      0.15740     28.60988
     0.46092      0.16495     28.64209      0.10048     24.37959      0.16495     28.64209
     0.48096      0.17256     28.67581      0.10504     24.40012      0.17256     28.67581
     0.50100      0.18023     28.71107      0.10963     24.42159      0.18023     28.71107
     0.52104      0.18795     28.74785      0.11425     24.44398      0.18795     28.74785
     0.54108      0.19574     28.78619      0.11889     24.46730      0.19574     28.78619
     0.56112      0.20359     28.82609      0.12356     24.49154      0.20359     28.82609
     0.58116      0.21152     28.86757      0.12826     24.51673      0.21152     28.86757
     0.60120      0.21951     28.91063      0.13300     24.54285      0.21951     28.91063
     0.62124      0.22758     28.95530      0.13776     24.56992      0.22758     28.95530
     0.64128      0.23573     29.00159      0.14257     24.59795      0.23573     29.00159
     0.66132      0.24396     29.04952      0.14740     24.62695      0.24396     29.04952
     0.68136      0.25227     29.09909      0.15228     24.65692      0.25227     29.09909
     0.70140      0.26067     29.15034      0.15719     24.68785      0.26067     29.15034
     0.72144      0.26917     29.20327      0.16214     24.71978      0.26917     29.20327
     0.74148      0.27776     29.25791      0.16713     24.75270      0.27776     29.25791
     0.76152      0.28644     29.31428      0.17217     24.78663      0.28644     29.31428
     0.78156      0.29523     29.37238      0.17725     24.82157      0.29523     29.37238
     0.80160      0.30413     29.43226      0.18237     24.85753      0.30413     29.43226
     0.82164      0.31313     29.49392      0.18755     24.89451      0.31313     29.49392
     0.84168      0.32225     29.55739      0.19277     24.93253      0.32225     29.55739
     0.86172      0.33149     29.62269      0.19804     24.97161      0.33149     29.62269
     0.88176      0.34085     29.68985      0.20336     25.01174      0.34085     29.68985
     0.90180      0.35034     29.75889      0.20874     25.05294      0.35034     29.75889
     0.92184      0.35996     29.82984      0.21417     25.09522      0.35996     29.82984
     0.94188      0.36972     29.90272      0.21966     25.13858      0.36972     29.90272
     0.96192      0.37961     29.97756      0.22521     25.18306      0.37961     29.97756
     0.98196      0.38965     30.05440      0.23082     25.22865      0.38965     30.05440
     1.00200      0.39985     30.13325      0.23649     25.27538      0.39985     30.13325
     1.02204      0.41019     30.21414      0.24223     25.32322      0.41019     30.21414
     1.04208      0.42070     30.29712      0.24803     25.37223      0.42070     30.29712
     1.06212      0.43138     30.38222      0.25390     25.42241      0.43138     30.38222
     1.08216      0.44223     30.46946      0.25984     25.47377      0.44223     30.46946
     1.10220      0.45326     30.55888      0.26586     25.52632      0.45326     30.55888
     1.12224      0.46447     30.65052      0.27195     25.58008      0.46447     30.65052
     1.14228      0.47588     30.74441      0.27812     25.63507      0.47588     30.74441
     1.16232      0.48748     30.84060      0.28437     25.69129      0.48748     30.84060
     1.18236      0.49928     30.93913      0.29070     25.74878      0.49928     30.93913
     1.20240      0.51130     31.04003      0.29712     25.80753      0.51130     31.04003
     1.22244      0.52354     31.14334      0.30362     25.86758      0.52354     31.14334
     1.24248      0.53600     31.24912      0.31021     25.92892      0.53600     31.24912
     1.26252      0.54870     31.35741      0.31690     25.99161      0.54870     31.35741
     1.28257      0.56164     31.46825      0.32368     26.05563      0.56164     31.46825
     1.30261      0.57483     31.58170      0.33056     26.12102      0.57483     31.58170
     1.32265      0.58828     31.69780      0.33754     26.18779      0.58828     31.69780
     1.34269      0.60200     31.81660      0.34462     26.25595      0.60200     31.81660
     1.36273      0.61600     31.93817      0.35181     26.32556      0.61600     31.93817
     1.38277      0.63029     32.06256      0.35912     26.39661      0.63029     32.06256
     1.40281      0.64487     32.18982      0.36653     26.46912      0.64487     32.18982
     1.42285      0.65976     32.32001      0.37406     26.54314      0.65976     32.32001
     1.44289      0.67497     32.45321      0.38172     26.61866      0.67497     32.45321
     1.46293      0.69052     32.58946      0.38949     26.69571      0.69052     32.58946
     1.48297      0.70640     32.72885      0.39740     26.77434      0.70640     32.72885
     1.50301      0.72265     32.87143      0.40544     26.85456      0.72265     32.87143
     1.52305      0.73926     33.01728      0.41361     26.93640      0.73926     33.01728
     1.54309      0.75625     33.16647      0.42193     27.01989      0.75625     33.16647
     1.56313      0.77364     33.31909      0.43039     27.10504      0.77364     33.31909
     1.58317      0.79144     33.47520      0.43899     27.19190      0.79144     33.47520
     1.60321      0.80967     33.63490      0.44775     27.28049      0.80967     33.63490
     1.62325      0.82833     33.79827      0.45667     27.37084      0.82833     33.79827
     1.64329      0.84746     33.96540      0.46575     27.46299      0.84746     33.96540
     1.66333      0.86707     34.13638      0.47501     27.55696      0.86707     34.13638
     1.68337      0.88716     34.31130      0.48443     27.65280      0.88716     34.31130
     1.70341      0.90778     34.49028      0.49403     27.75054      0.90778     34.49028
     1.72345      0.92893     34.67340      0.50382     27.85022      0.92893     34.67340
     1.74349      0.95063     34.86077      0.51380     27.95185      0.95063     34.86077
     1.76353      0.97291     35.05252      0.52397     28.05551      0.97291     35.05252
     1.78357      0.99579     35.24875      0.53435     28.16120      0.99579     35.24875
     1.80361      1.01929     35.44960      0.54494     28.26898      1.01929     35.44960
     1.82365      1.04344     35.65516      0.55574     28.37890      1.04344     35.65516
     1.84369      1.06828     35.86559      0.56677     28.49100      1.06828     35.86559
     1.86373      1.09381     36.08102      0.57803     28.60532      1.09381     36.08102
     1.88377      1.12008     36.30159      0.58952     28.72189      1.12008     36.30159
     1.90381      1.14711     36.52745      0.60127     28.84079      1.14711     36.52745
     1.92385      1.17494     36.75875      0.61326     28.96205      1.17494     36.75875
     1.94389      1.20360     36.99565      0.62552     29.08572      1.20360     36.99565
     1.96393      1.23313     37.23832      0.63806     29.21187      1.23313     37.23832
     1.98397      1.26357     37.48693      0.65087     29.34055      1.26357     37.48693
     2.00401      1.29495     37.74166      0.66398     29.47179      1.29495     37.74166
     2.02405      1.32731     38.00271      0.67739     29.60568      1.32731     38.00271
     2.04409      1.36071     38.27027      0.69111     29.74227      1.36071     38.27027
     2.06413      1.39519     38.54455      0.70515     29.88162      1.39519     38.54455
     2.08417      1.43080     38.82577      0.71953     30.02380      1.43080     38.82577
     2.10421      1.46759     39.11415      0.73426     30.16887      1.46759     39.11415
     2.12425      1.50562     39.40993      0.74934     30.31691      1.50562     39.40993
     2.14429      1.54494     39.71336      0.76480     30.46800      1.54494     39.71336
     2.16433      1.58562     40.02469      0.78064     30.62218      1.58562     40.02469
     2.18437      1.62773     40.34420      0.79689     30.77956      1.62773     40.34420
     2.20441      1.67133     40.67218      0.81355     30.94022      1.67133     40.67218
     2.22445      1.71651     41.00893      0.83064     31.10423      1.71651     41.00893
     2.24449      1.76333     41.35476      0.84818     31.27168      1.76333     41.35476
     2.26453      1.81189     41.70999      0.86619     31.44265      1.81189     41.70999
     2.28457      1.86227     42.07499      0.88468     31.61726      1.86227     42.07499
     2.30461      1.91457     42.45009      0.90367     31.79559      1.91457     42.45009
     2.32465      1.96889     42.83571      0.92319     31.97775      1.96889     42.83571
     2.34469      2.02534     43.23224      0.94325     32.16383      2.02534     43.23224
     2.36473      2.08404     43.64011      0.96387     32.35396      2.08404     43.64011
     2.38477      2.14511     44.05975      0.98508     32.54823      2.14511     44.05975
     2.40481      2.20869     44.49165      1.00691     32.74677      2.20869     44.49165
     2.42485      2.27491     44.93630      1.02938     32.94971      2.27491     44.93630
     2.44489      2.34394     45.39425      1.05251     33.15718      2.34394     45.39425
     2.46493      2.41592     45.86602      1.07633     33.36929      2.41592     45.86602
     2.48497      2.49105     46.35224      1.10088     33.58619      2.49105     46.35224
     2.50501      2.56950     46.85350      1.12619     33.80803      2.56950     46.85350
     2.52505      2.65149     47.37049      1.15229     34.03498      2.65149     47.37049
     2.54509      2.73723     47.90388      1.17921     34.26718      2.73723     47.90388
     2.56513      2.82696     48.45446      1.20699     34.50479      2.82696     48.45446
     2.58517      2.92093     49.02298      1.23568     34.74799      2.92093     49.02298
     2.60521      3.01943     49.61029      1.26531     34.99695      3.01943     49.61029
     2.62525      3.12275     50.21731      1.29592     35.25188      3.12275     50.21731
     2.64529      3.23121     50.84496      1.32757     35.51298      3.23121     50.84496
     2.66533      3.34517     51.49427      1.36031     35.78043      3.34517     51.49427
     2.68537      3.46502     52.16632      1.39419     36.05446      3.46502     52.16632
     2.70541      3.59116     52.86229      1.42926     36.33530      3.59116     52.86229
     2.72545      3.72407     53.58340      1.46558     36.62319      3.72407     53.58340
     2.74549      3.86422     54.33098      1.50322     36.91840      3.86422     54.33098
     2.76553      4.01217     55.10646      1.54224     37.22115      4.01217     55.10646
     2.78557      4.16851     55.91136      1.58273     37.53174      4.16851     55.91136
     2.80561      4.33389     56.74733      1.62475     37.85047      4.33389     56.74733
     2.82565      4.50904     57.61613      1.66838     38.17765      4.50904     57.61613
     2.84569      4.69474     58.51966      1.71373     38.51357      4.69474     58.51966
     2.86573      4.89187     59.45998      1.76087     38.85860      4.89187     59.45998
     2.88577      5.10139     60.43929      1.80991     39.21309      5.10139     60.43929
     2.90581      5.32438     61.46002      1.86096     39.57740      5.32438     61.46002
     2.92585      5.56202     62.52474      1.91415     39.95197      5.56202     62.52474
     2.94589      5.81562     63.63629      1.96958     40.33721      5.81562     63.63629
     2.96593      6.08668     64.79773      2.02740     40.73355      6.08668     64.79773
     2.98597      6.37682     66.01238      2.08775     41.14146      6.37682     66.01238
     3.00601      6.68791     67.28391      2.15079     41.56148      6.68791     67.28391
     3.02605      7.02201     68.61625      2.21669     41.99409      7.02201     68.61625
     3.04609      7.38148     70.01380      2.28564     42.43991      7.38148     70.01380
     3.06613      7.76894     71.48129      2.35782     42.89952      7.76894     71.48129
     3.08617      8.18740     73.02398      2.43347     43.37355      8.18740     73.02398
     3.10621      8.64027     74.64761      2.51280     43.86268      8.64027     74.64761
     3.12625      9.13146     76.35858      2.59609     44.36765      9.13146     76.35858
     3.14629      9.66540     78.16389      2.68360     44.88927      9.66540     78.16389
     3.16633     10.24724     80.07135      2.77565     45.42831     10.24724     80.07135
     3.18637     10.88289     82.08959      2.87256     45.98568     10.88289     82.08959
     3.20641     11.57921     84.22825      2.97470     46.56237     11.57921     84.22825
     3.22645     12.34419     86.49802      3.08248     47.15936     12.34419     86.49802
     3.24649     13.18715     88.91089      3.19633     47.77774     13.18715     88.91089
     3.26653     14.11910     91.48032      3.31675     48.41872     14.11910     91.48032
     3.28657     15.15297     94.22134      3.44427     49.08359     15.15297     94.22134
     3.30661     16.30420     97.15090      3.57949     49.77369     16.30420     97.15090
      3.3267      17.5912     100.2881       3.7231      50.4905      17.5912     100.2881
      3.3467      19.0361     103.6544       3.8758      51.2357      19.0361     103.6544
      3.3667      20.6657     107.2742       4.0384      52.0109      20.6657     107.2742
      3.3868      22.5128     111.1749       4.2119      52.8181      22.5128     111.1749
      3.4068      24.6174     115.3873       4.3974      53.6594      24.6174     115.3873
      3.4269      27.0293     119.9463       4.5959      54.5369      27.0293     119.9463
      3.4469      29.8106     124.8906       4.8089      55.4532      29.8106     124.8906
      3.4669      33.0394     130.2630       5.0378      56.4110      33.0394     130.2630
      3.4870      36.8150     136.1098       5.2844      57.4131      36.8150     136.1098
      3.5070      41.2646     142.4795       5.5506      58.4629      41.2646     142.4795
      3.5271      46.5529     149.4197       5.8389      59.5639      46.5529     149.4197
      3.5471      52.8940     156.9704       6.1517      60.7201      52.8940     156.9704
      3.5671      60.5688     165.1531       6.4922      61.9358      60.5688     165.1530
      3.5872      69.9453     173.9475       6.8641      63.2159      69.9453     173.9475
      3.6072      81.5031     183.2530       7.2715      64.5657      81.5031     183.2530
      3.6273      95.8538     192.8179       7.7194      65.9913      95.8537     192.8178
      3.6473     113.7363     202.1226       8.2140      67.4992     113.7360     202.1226
      3.6673     135.9420     210.2051       8.7623      69.0969     135.9415     210.2050
      3.6874     163.0661     215.4545       9.3733      70.7927     163.0651     215.4550
      3.7074     194.9747     215.5491      10.0575      72.5956     194.9733     215.5509
      3.7275     230.0623     207.9435      10.8282      74.5158     230.0619     207.9486
      3.7475     265.0527     191.2655      11.7018      76.5640     265.0588     191.2742
      3.7675     296.5756     166.6773      12.6991      78.7521     296.5962     166.6811
      3.7876     323.7348     136.7162      13.8463      81.0921     323.7654     136.6926
      3.8076     347.8078     101.7875      15.1772      83.5955     347.8089     101.7216
      3.8277     368.1766      59.2278      16.7350      86.2715     368.0939      59.1658
      3.8477     379.7021       7.3617      18.5759      89.1240     379.5640       7.4107
