#                                                           
#                                                           
# Y88b    /   e           e    e      888~~\    ,88~-_      
#  Y88b  /   d8b         d8b  d8b     888   |  d888   \     
#   Y88b/   /Y88b       d888bdY88b    888 _/  88888    |    
#    Y8Y   /  Y88b     / Y88Y Y888b   888  \  88888    |    
#     Y   /____Y88b   /   YY   Y888b  888   |  Y888   /     
#    /   /      Y88b /          Y888b 888__/    `88_-~      
#                                                           
#                                                           
#       Version 4.3.0 Revision 15185 Hash 3effa9d           
#                  MPI+SLK+OpenMP Build                     
#               http://www.yambo-code.org                   
#
# EELS @ Q(1)  [q->0 direction]:0.5774E-5 0.5774E-5 0.5774E-5
#
#
# - Energies      are  Analyt. E
# - Wavefunctions are Teter 93(XC)
#
# - The Green`s function is Retarded -
# - Using the Length Gauge -
# - [r,Vnl] *is* included -
#
#   BSK|Identifier              :4616
#      |Dimension               :32
#      |Bands                   :7 - 10
#      |Exchange           [res]: yes
#      |Correlation        [res]: yes
#      |Kernel`s coupling       : no
#      |Exchange           [cpl]: no
#      |Correlation        [cpl]: no
#      |W interaction is bare   : yes
#      |ALDA kernel in R-space  : no
#      |RL vectors    [exchange]:51
#      |RL vectors [correlation]:51
#      |E/h energy range    [ev]:-1.000000 - -1.000000
#      |Coupling range     [o/o]: 100.0000 -  100.0000
#    W |Interaction is diagonal : yes
#      |Matrix size             :0
#   RIM|RL components      [col]:0
#      |Random points      [col]:0
#
#    E/ev[1]      EEL-Im[2]    EEL-Re[3]    EELo-Im[4]   EELo-Re[5]
#
     0.00000     -0.00000     -0.05365     -0.00000     -0.30297
   0.1001E-1    0.1139E-4    -.5365E-1    0.7433E-6    -.3030   
   0.2003E-1    0.2277E-4    -.5365E-1    0.1487E-5    -.3030   
   0.3004E-1    0.3416E-4    -.5363E-1    0.2230E-5    -.3030   
   0.4005E-1    0.4555E-4    -.5362E-1    0.2973E-5    -.3030   
   0.5006E-1    0.5694E-4    -.5360E-1    0.3717E-5    -.3030   
   0.6008E-1    0.6834E-4    -.5357E-1    0.4460E-5    -.3030   
   0.7009E-1    0.7973E-4    -.5354E-1    0.5203E-5    -.3030   
   0.8010E-1    0.9113E-4    -.5351E-1    0.5947E-5    -.3030   
   0.9011E-1    0.1025E-3    -.5347E-1    0.6690E-5    -.3030   
   0.1001       0.1139E-3    -.5343E-1    0.7433E-5    -.3030   
   0.1101       0.1253E-3    -.5338E-1    0.8177E-5    -.3030   
   0.1202       0.1368E-3    -.5333E-1    0.8920E-5    -.3029   
   0.1302       0.1482E-3    -.5327E-1    0.9664E-5    -.3029   
   0.1402       0.1596E-3    -.5321E-1    0.1041E-4    -.3029   
   0.1502       0.1710E-3    -.5314E-1    0.1115E-4    -.3029   
   0.1602       0.1825E-3    -.5307E-1    0.1189E-4    -.3029   
   0.1702       0.1939E-3    -.5299E-1    0.1264E-4    -.3029   
   0.1802       0.2054E-3    -.5291E-1    0.1338E-4    -.3029   
   0.1902       0.2168E-3    -.5283E-1    0.1413E-4    -.3029   
   0.2003       0.2283E-3    -.5274E-1    0.1487E-4    -.3029   
   0.2103       0.2397E-3    -.5265E-1    0.1561E-4    -.3029   
   0.2203       0.2512E-3    -.5255E-1    0.1636E-4    -.3029   
   0.2303       0.2627E-3    -.5245E-1    0.1710E-4    -.3029   
   0.2403       0.2742E-3    -.5234E-1    0.1784E-4    -.3029   
   0.2503       0.2857E-3    -.5223E-1    0.1859E-4    -.3029   
   0.2603       0.2972E-3    -.5211E-1    0.1933E-4    -.3029   
   0.2703       0.3088E-3    -.5199E-1    0.2008E-4    -.3029   
   0.2804       0.3203E-3    -.5186E-1    0.2082E-4    -.3029   
   0.2904       0.3319E-3    -.5173E-1    0.2156E-4    -.3028   
   0.3004       0.3434E-3    -.5160E-1    0.2231E-4    -.3028   
   0.3104       0.3550E-3    -.5146E-1    0.2305E-4    -.3028   
   0.3204       0.3666E-3    -.5131E-1    0.2380E-4    -.3028   
   0.3304       0.3782E-3    -.5116E-1    0.2454E-4    -.3028   
   0.3404       0.3898E-3    -.5101E-1    0.2529E-4    -.3028   
   0.3504       0.4014E-3    -.5085E-1    0.2603E-4    -.3028   
   0.3605       0.4131E-3    -.5069E-1    0.2677E-4    -.3028   
   0.3705       0.4248E-3    -.5052E-1    0.2752E-4    -.3028   
   0.3805       0.4364E-3    -.5035E-1    0.2826E-4    -.3028   
   0.3905       0.4481E-3    -.5017E-1    0.2901E-4    -.3027   
   0.4005       0.4598E-3    -.4999E-1    0.2975E-4    -.3027   
   0.4105       0.4715E-3    -.4980E-1    0.3050E-4    -.3027   
   0.4205       0.4833E-3    -.4961E-1    0.3124E-4    -.3027   
   0.4305       0.4950E-3    -.4942E-1    0.3199E-4    -.3027   
   0.4406       0.5068E-3    -.4921E-1    0.3273E-4    -.3027   
   0.4506       0.5186E-3    -.4901E-1    0.3348E-4    -.3027   
   0.4606       0.5304E-3    -.4880E-1    0.3422E-4    -.3027   
   0.4706       0.5423E-3    -.4858E-1    0.3497E-4    -.3026   
   0.4806       0.5541E-3    -.4837E-1    0.3571E-4    -.3026   
   0.4906       0.5660E-3    -.4814E-1    0.3646E-4    -.3026   
   0.5006       0.5779E-3    -.4791E-1    0.3721E-4    -.3026   
   0.5106       0.5898E-3    -.4768E-1    0.3795E-4    -.3026   
   0.5207       0.6017E-3    -.4744E-1    0.3870E-4    -.3026   
   0.5307       0.6137E-3    -.4720E-1    0.3944E-4    -.3026   
   0.5407       0.6257E-3    -.4695E-1    0.4019E-4    -.3025   
   0.5507       0.6377E-3    -.4669E-1    0.4094E-4    -.3025   
   0.5607       0.6497E-3    -.4644E-1    0.4168E-4    -.3025   
   0.5707       0.6617E-3    -.4617E-1    0.4243E-4    -.3025   
   0.5807       0.6738E-3    -.4591E-1    0.4317E-4    -.3025   
   0.5907       0.6859E-3    -.4563E-1    0.4392E-4    -.3025   
   0.6008       0.6980E-3    -.4536E-1    0.4467E-4    -.3024   
   0.6108       0.7102E-3    -.4508E-1    0.4541E-4    -.3024   
   0.6208       0.7224E-3    -.4479E-1    0.4616E-4    -.3024   
   0.6308       0.7346E-3    -.4450E-1    0.4691E-4    -.3024   
   0.6408       0.7468E-3    -.4420E-1    0.4766E-4    -.3024   
   0.6508       0.7591E-3    -.4390E-1    0.4840E-4    -.3023   
   0.6608       0.7713E-3    -.4359E-1    0.4915E-4    -.3023   
   0.6708       0.7837E-3    -.4328E-1    0.4990E-4    -.3023   
   0.6809       0.7960E-3    -.4296E-1    0.5065E-4    -.3023   
   0.6909       0.8084E-3    -.4264E-1    0.5139E-4    -.3023   
   0.7009       0.8208E-3    -.4232E-1    0.5214E-4    -.3022   
   0.7109       0.8332E-3    -.4199E-1    0.5289E-4    -.3022   
   0.7209       0.8457E-3    -.4165E-1    0.5364E-4    -.3022   
   0.7309       0.8582E-3    -.4131E-1    0.5439E-4    -.3022   
   0.7409       0.8707E-3    -.4096E-1    0.5514E-4    -.3022   
   0.7509       0.8833E-3    -.4061E-1    0.5588E-4    -.3021   
   0.7610       0.8959E-3    -.4026E-1    0.5663E-4    -.3021   
   0.7710       0.9085E-3    -.3989E-1    0.5738E-4    -.3021   
   0.7810       0.9212E-3    -.3953E-1    0.5813E-4    -.3021   
   0.7910       0.9339E-3    -.3916E-1    0.5888E-4    -.3020   
   0.8010       0.9466E-3    -.3878E-1    0.5963E-4    -.3020   
   0.8110       0.9594E-3    -.3840E-1    0.6038E-4    -.3020   
   0.8210       0.9722E-3    -.3801E-1    0.6113E-4    -.3020   
   0.8310       0.9851E-3    -.3762E-1    0.6188E-4    -.3019   
   0.8411       0.9980E-3    -.3722E-1    0.6263E-4    -.3019   
   0.8511       0.1011E-2    -.3682E-1    0.6338E-4    -.3019   
   0.8611       0.1024E-2    -.3641E-1    0.6413E-4    -.3019   
   0.8711       0.1037E-2    -.3600E-1    0.6488E-4    -.3018   
   0.8811       0.1050E-2    -.3558E-1    0.6563E-4    -.3018   
   0.8911       0.1063E-2    -.3516E-1    0.6638E-4    -.3018   
   0.9011       0.1076E-2    -.3473E-1    0.6713E-4    -.3018   
   0.9111       0.1089E-2    -.3430E-1    0.6788E-4    -.3017   
   0.9212       0.1102E-2    -.3386E-1    0.6863E-4    -.3017   
   0.9312       0.1116E-2    -.3341E-1    0.6939E-4    -.3017   
   0.9412       0.1129E-2    -.3296E-1    0.7014E-4    -.3017   
   0.9512       0.1142E-2    -.3251E-1    0.7089E-4    -.3016   
   0.9612       0.1156E-2    -.3205E-1    0.7164E-4    -.3016   
   0.9712       0.1169E-2    -.3158E-1    0.7239E-4    -.3016   
   0.9812       0.1183E-2    -.3111E-1    0.7315E-4    -.3015   
   0.9912       0.1196E-2    -.3064E-1    0.7390E-4    -.3015   
    1.001       0.1210E-2    -.3015E-1    0.7465E-4    -.3015   
    1.011       0.1223E-2    -.2967E-1    0.7541E-4    -.3014   
    1.021       0.1237E-2    -.2918E-1    0.7616E-4    -.3014   
    1.031       0.1251E-2    -.2868E-1    0.7691E-4    -.3014   
    1.041       0.1265E-2    -.2817E-1    0.7767E-4    -.3014   
    1.051       0.1279E-2    -.2766E-1    0.7842E-4    -.3013   
    1.061       0.1292E-2    -.2715E-1    0.7917E-4    -.3013   
    1.071       0.1306E-2    -.2663E-1    0.7993E-4    -.3013   
    1.081       0.1320E-2    -.2610E-1    0.8068E-4    -.3012   
    1.091       0.1335E-2    -.2557E-1    0.8144E-4    -.3012   
    1.101       0.1349E-2    -.2503E-1    0.8219E-4    -.3012   
    1.111       0.1363E-2    -.2449E-1    0.8295E-4    -.3011   
    1.121       0.1377E-2    -.2394E-1    0.8370E-4    -.3011   
    1.131       0.1391E-2    -.2339E-1    0.8446E-4    -.3011   
    1.141       0.1406E-2    -.2283E-1    0.8521E-4    -.3010   
    1.151       0.1420E-2    -.2226E-1    0.8597E-4    -.3010   
    1.161       0.1435E-2    -.2169E-1    0.8673E-4    -.3010   
    1.171       0.1450E-2    -.2111E-1    0.8748E-4    -.3009   
    1.181       0.1464E-2    -.2053E-1    0.8824E-4    -.3009   
    1.191       0.1479E-2    -.1994E-1    0.8900E-4    -.3009   
    1.202       0.1495E-2    -.1934E-1    0.8975E-4    -.3008   
    1.212       0.1510E-2    -.1874E-1    0.9051E-4    -.3008   
    1.222       0.1525E-2    -.1814E-1    0.9127E-4    -.3007   
    1.232       0.1541E-2    -.1752E-1    0.9203E-4    -.3007   
    1.242       0.1557E-2    -.1690E-1    0.9278E-4    -.3007   
    1.252       0.1574E-2    -.1628E-1    0.9354E-4    -.3006   
    1.262       0.1592E-2    -.1564E-1    0.9430E-4    -.3006   
    1.272       0.1612E-2    -.1500E-1    0.9506E-4    -.3006   
    1.282       0.1635E-2    -.1436E-1    0.9582E-4    -.3005   
    1.292       0.1662E-2    -.1371E-1    0.9658E-4    -.3005   
    1.302       0.1692E-2    -.1307E-1    0.9734E-4    -.3004   
    1.312       0.1715E-2    -.1242E-1    0.9810E-4    -.3004   
    1.322       0.1723E-2    -.1178E-1    0.9886E-4    -.3004   
    1.332       0.1723E-2    -.1111E-1    0.9962E-4    -.3003   
    1.342       0.1727E-2    -.1043E-1    0.1004E-3    -.3003   
    1.352       0.1736E-2    -.9747E-2    0.1011E-3    -.3002   
    1.362       0.1747E-2    -.9052E-2    0.1019E-3    -.3002   
    1.372       0.1759E-2    -.8351E-2    0.1027E-3    -.3002   
    1.382       0.1773E-2    -.7645E-2    0.1034E-3    -.3001   
    1.392       0.1788E-2    -.6932E-2    0.1042E-3    -.3001   
    1.402       0.1803E-2    -.6214E-2    0.1049E-3    -.3000   
    1.412       0.1818E-2    -.5489E-2    0.1057E-3    -.3000   
    1.422       0.1834E-2    -.4757E-2    0.1065E-3    -.3000   
    1.432       0.1850E-2    -.4020E-2    0.1072E-3    -.2999   
    1.442       0.1866E-2    -.3276E-2    0.1080E-3    -.2999   
    1.452       0.1882E-2    -.2526E-2    0.1088E-3    -.2998   
    1.462       0.1898E-2    -.1769E-2    0.1095E-3    -.2998   
    1.472       0.1915E-2    -.1005E-2    0.1103E-3    -.2997   
    1.482       0.1931E-2    -.2351E-3    0.1111E-3    -.2997   
    1.492       0.1948E-2    0.5416E-3    0.1118E-3    -.2996   
    1.502       0.1965E-2    0.1325E-2    0.1126E-3    -.2996   
    1.512       0.1982E-2    0.2115E-2    0.1133E-3    -.2996   
    1.522       0.1999E-2    0.2912E-2    0.1141E-3    -.2995   
    1.532       0.2016E-2    0.3716E-2    0.1149E-3    -.2995   
    1.542       0.2033E-2    0.4527E-2    0.1156E-3    -.2994   
    1.552       0.2050E-2    0.5344E-2    0.1164E-3    -.2994   
    1.562       0.2068E-2    0.6169E-2    0.1172E-3    -.2993   
    1.572       0.2085E-2    0.7000E-2    0.1179E-3    -.2993   
    1.582       0.2103E-2    0.7839E-2    0.1187E-3    -.2992   
    1.592       0.2120E-2    0.8685E-2    0.1195E-3    -.2992   
    1.602       0.2138E-2    0.9537E-2    0.1203E-3    -.2991   
    1.612       0.2156E-2    0.1040E-1    0.1210E-3    -.2991   
    1.622       0.2174E-2    0.1126E-1    0.1218E-3    -.2990   
    1.632       0.2192E-2    0.1214E-1    0.1226E-3    -.2990   
    1.642       0.2211E-2    0.1302E-1    0.1233E-3    -.2989   
    1.652       0.2229E-2    0.1391E-1    0.1241E-3    -.2989   
    1.662       0.2247E-2    0.1481E-1    0.1249E-3    -.2988   
    1.672       0.2266E-2    0.1571E-1    0.1256E-3    -.2988   
    1.682       0.2285E-2    0.1662E-1    0.1264E-3    -.2987   
    1.692       0.2303E-2    0.1754E-1    0.1272E-3    -.2987   
    1.702       0.2322E-2    0.1847E-1    0.1279E-3    -.2986   
    1.712       0.2341E-2    0.1940E-1    0.1287E-3    -.2986   
    1.722       0.2360E-2    0.2034E-1    0.1295E-3    -.2985   
    1.732       0.2380E-2    0.2129E-1    0.1303E-3    -.2985   
    1.742       0.2399E-2    0.2225E-1    0.1310E-3    -.2984   
    1.752       0.2418E-2    0.2321E-1    0.1318E-3    -.2984   
    1.762       0.2438E-2    0.2418E-1    0.1326E-3    -.2983   
    1.772       0.2458E-2    0.2516E-1    0.1334E-3    -.2983   
    1.782       0.2478E-2    0.2615E-1    0.1341E-3    -.2982   
    1.792       0.2498E-2    0.2715E-1    0.1349E-3    -.2982   
    1.802       0.2518E-2    0.2815E-1    0.1357E-3    -.2981   
    1.812       0.2538E-2    0.2916E-1    0.1365E-3    -.2981   
    1.822       0.2558E-2    0.3018E-1    0.1372E-3    -.2980   
    1.832       0.2579E-2    0.3121E-1    0.1380E-3    -.2979   
    1.842       0.2600E-2    0.3225E-1    0.1388E-3    -.2979   
    1.852       0.2620E-2    0.3330E-1    0.1396E-3    -.2978   
    1.862       0.2641E-2    0.3435E-1    0.1403E-3    -.2978   
    1.872       0.2662E-2    0.3541E-1    0.1411E-3    -.2977   
    1.882       0.2684E-2    0.3648E-1    0.1419E-3    -.2977   
    1.892       0.2705E-2    0.3756E-1    0.1427E-3    -.2976   
    1.902       0.2726E-2    0.3865E-1    0.1434E-3    -.2976   
    1.912       0.2748E-2    0.3974E-1    0.1442E-3    -.2975   
    1.922       0.2770E-2    0.4085E-1    0.1450E-3    -.2974   
    1.932       0.2792E-2    0.4196E-1    0.1458E-3    -.2974   
    1.942       0.2814E-2    0.4308E-1    0.1466E-3    -.2973   
    1.952       0.2836E-2    0.4422E-1    0.1473E-3    -.2973   
    1.962       0.2858E-2    0.4536E-1    0.1481E-3    -.2972   
    1.972       0.2881E-2    0.4651E-1    0.1489E-3    -.2971   
    1.982       0.2904E-2    0.4766E-1    0.1497E-3    -.2971   
    1.992       0.2927E-2    0.4883E-1    0.1505E-3    -.2970   
    2.003       0.2950E-2    0.5001E-1    0.1513E-3    -.2970   
    2.013       0.2973E-2    0.5119E-1    0.1520E-3    -.2969   
    2.023       0.2996E-2    0.5239E-1    0.1528E-3    -.2968   
    2.033       0.3020E-2    0.5359E-1    0.1536E-3    -.2968   
    2.043       0.3044E-2    0.5481E-1    0.1544E-3    -.2967   
    2.053       0.3068E-2    0.5603E-1    0.1552E-3    -.2967   
    2.063       0.3092E-2    0.5726E-1    0.1560E-3    -.2966   
    2.073       0.3116E-2    0.5851E-1    0.1567E-3    -.2965   
    2.083       0.3140E-2    0.5976E-1    0.1575E-3    -.2965   
    2.093       0.3165E-2    0.6102E-1    0.1583E-3    -.2964   
    2.103       0.3190E-2    0.6229E-1    0.1591E-3    -.2963   
    2.113       0.3215E-2    0.6358E-1    0.1599E-3    -.2963   
    2.123       0.3240E-2    0.6487E-1    0.1607E-3    -.2962   
    2.133       0.3266E-2    0.6617E-1    0.1615E-3    -.2962   
    2.143       0.3291E-2    0.6748E-1    0.1623E-3    -.2961   
    2.153       0.3317E-2    0.6881E-1    0.1630E-3    -.2960   
    2.163       0.3343E-2    0.7014E-1    0.1638E-3    -.2960   
    2.173       0.3370E-2    0.7149E-1    0.1646E-3    -.2959   
    2.183       0.3396E-2    0.7284E-1    0.1654E-3    -.2958   
    2.193       0.3423E-2    0.7421E-1    0.1662E-3    -.2958   
    2.203       0.3450E-2    0.7558E-1    0.1670E-3    -.2957   
    2.213       0.3477E-2    0.7697E-1    0.1678E-3    -.2956   
    2.223       0.3505E-2    0.7837E-1    0.1686E-3    -.2956   
    2.233       0.3532E-2    0.7978E-1    0.1694E-3    -.2955   
    2.243       0.3560E-2    0.8120E-1    0.1702E-3    -.2954   
    2.253       0.3588E-2    0.8263E-1    0.1709E-3    -.2954   
    2.263       0.3617E-2    0.8407E-1    0.1717E-3    -.2953   
    2.273       0.3646E-2    0.8552E-1    0.1725E-3    -.2952   
    2.283       0.3675E-2    0.8699E-1    0.1733E-3    -.2951   
    2.293       0.3704E-2    0.8847E-1    0.1741E-3    -.2951   
    2.303       0.3734E-2    0.8996E-1    0.1749E-3    -.2950   
    2.313       0.3764E-2    0.9146E-1    0.1757E-3    -.2949   
    2.323       0.3795E-2    0.9297E-1    0.1765E-3    -.2949   
    2.333       0.3826E-2    0.9450E-1    0.1773E-3    -.2948   
    2.343       0.3858E-2    0.9603E-1    0.1781E-3    -.2947   
    2.353       0.3890E-2    0.9759E-1    0.1789E-3    -.2947   
    2.363       0.3923E-2    0.9915E-1    0.1797E-3    -.2946   
    2.373       0.3956E-2    0.1007       0.1805E-3    -.2945   
    2.383       0.3991E-2    0.1023       0.1813E-3    -.2944   
    2.393       0.4027E-2    0.1039       0.1821E-3    -.2944   
    2.403       0.4065E-2    0.1055       0.1829E-3    -.2943   
    2.413       0.4105E-2    0.1072       0.1837E-3    -.2942   
    2.423       0.4149E-2    0.1088       0.1845E-3    -.2941   
    2.433       0.4199E-2    0.1105       0.1853E-3    -.2941   
    2.443       0.4257E-2    0.1122       0.1861E-3    -.2940   
    2.453       0.4330E-2    0.1139       0.1869E-3    -.2939   
    2.463       0.4426E-2    0.1156       0.1877E-3    -.2938   
    2.473       0.4558E-2    0.1173       0.1885E-3    -.2938   
    2.483       0.4710E-2    0.1189       0.1893E-3    -.2937   
    2.493       0.4797E-2    0.1205       0.1901E-3    -.2936   
    2.503       0.4757E-2    0.1220       0.1909E-3    -.2935   
    2.513       0.4673E-2    0.1237       0.1917E-3    -.2935   
    2.523       0.4619E-2    0.1255       0.1925E-3    -.2934   
    2.533       0.4596E-2    0.1273       0.1933E-3    -.2933   
    2.543       0.4596E-2    0.1291       0.1942E-3    -.2932   
    2.553       0.4609E-2    0.1310       0.1950E-3    -.2932   
    2.563       0.4630E-2    0.1328       0.1958E-3    -.2931   
    2.573       0.4656E-2    0.1347       0.1966E-3    -.2930   
    2.583       0.4686E-2    0.1365       0.1974E-3    -.2929   
    2.593       0.4718E-2    0.1384       0.1982E-3    -.2928   
    2.603       0.4751E-2    0.1403       0.1990E-3    -.2928   
    2.613       0.4787E-2    0.1422       0.1998E-3    -.2927   
    2.623       0.4823E-2    0.1441       0.2006E-3    -.2926   
    2.633       0.4860E-2    0.1461       0.2014E-3    -.2925   
    2.643       0.4898E-2    0.1480       0.2023E-3    -.2924   
    2.653       0.4936E-2    0.1500       0.2031E-3    -.2924   
    2.663       0.4976E-2    0.1520       0.2039E-3    -.2923   
    2.673       0.5016E-2    0.1540       0.2047E-3    -.2922   
    2.683       0.5056E-2    0.1560       0.2055E-3    -.2921   
    2.693       0.5097E-2    0.1580       0.2063E-3    -.2920   
    2.703       0.5139E-2    0.1601       0.2071E-3    -.2919   
    2.713       0.5181E-2    0.1621       0.2080E-3    -.2919   
    2.723       0.5223E-2    0.1642       0.2088E-3    -.2918   
    2.733       0.5267E-2    0.1663       0.2096E-3    -.2917   
    2.743       0.5310E-2    0.1684       0.2104E-3    -.2916   
    2.753       0.5354E-2    0.1706       0.2112E-3    -.2915   
    2.763       0.5399E-2    0.1727       0.2120E-3    -.2914   
    2.773       0.5444E-2    0.1749       0.2129E-3    -.2914   
    2.783       0.5490E-2    0.1771       0.2137E-3    -.2913   
