#                                                           
#                                                           
# Y88b    /   e           e    e      888~~\    ,88~-_      
#  Y88b  /   d8b         d8b  d8b     888   |  d888   \     
#   Y88b/   /Y88b       d888bdY88b    888 _/  88888    |    
#    Y8Y   /  Y88b     / Y88Y Y888b   888  \  88888    |    
#     Y   /____Y88b   /   YY   Y888b  888   |  Y888   /     
#    /   /      Y88b /          Y888b 888__/    `88_-~      
#                                                           
#                                                           
#       Version 4.3.0 Revision 15185 Hash 3effa9d           
#                  MPI+SLK+OpenMP Build                     
#               http://www.yambo-code.org                   
#
# Absorption @ Q(1) [q->0 direction] :0.5774E-5 0.5774E-5 0.5774E-5
#
#
# - Energies      are  Analyt. E
# - Wavefunctions are Teter 93(XC)
#
# - The Green`s function is Retarded -
# - Using the Length Gauge -
# - [r,Vnl] *is* included -
#
#   BSK|Identifier              :4616
#      |Dimension               :32
#      |Bands                   :7 - 10
#      |Exchange           [res]: yes
#      |Correlation        [res]: yes
#      |Kernel`s coupling       : no
#      |Exchange           [cpl]: no
#      |Correlation        [cpl]: no
#      |W interaction is bare   : yes
#      |ALDA kernel in R-space  : no
#      |RL vectors    [exchange]:51
#      |RL vectors [correlation]:51
#      |E/h energy range    [ev]:-1.000000 - -1.000000
#      |Coupling range     [o/o]: 100.0000 -  100.0000
#    W |Interaction is diagonal : yes
#      |Matrix size             :0
#   RIM|RL components      [col]:0
#      |Random points      [col]:0
#
#    E/ev[1]      EPS-Im[2]    EPS-Re[3]    EPSo-Im[4]   EPSo-Re[5]
#
     0.00000      0.00000     18.63779      0.00000      3.30065
   0.1001E-1    0.3956E-2     18.64       0.8098E-5     3.301   
   0.2003E-1    0.7914E-2     18.64       0.1620E-4     3.301   
   0.3004E-1    0.1188E-1     18.64       0.2429E-4     3.301   
   0.4005E-1    0.1584E-1     18.65       0.3239E-4     3.301   
   0.5006E-1    0.1982E-1     18.66       0.4049E-4     3.301   
   0.6008E-1    0.2381E-1     18.67       0.4859E-4     3.301   
   0.7009E-1    0.2781E-1     18.68       0.5669E-4     3.301   
   0.8010E-1    0.3183E-1     18.69       0.6479E-4     3.301   
   0.9011E-1    0.3586E-1     18.70       0.7289E-4     3.301   
   0.1001       0.3992E-1     18.72       0.8099E-4     3.301   
   0.1101       0.4399E-1     18.73       0.8909E-4     3.301   
   0.1202       0.4809E-1     18.75       0.9719E-4     3.301   
   0.1302       0.5222E-1     18.77       0.1053E-3     3.301   
   0.1402       0.5638E-1     18.79       0.1134E-3     3.301   
   0.1502       0.6056E-1     18.82       0.1215E-3     3.301   
   0.1602       0.6478E-1     18.84       0.1296E-3     3.301   
   0.1702       0.6904E-1     18.87       0.1377E-3     3.301   
   0.1802       0.7334E-1     18.90       0.1458E-3     3.301   
   0.1902       0.7768E-1     18.93       0.1539E-3     3.301   
   0.2003       0.8206E-1     18.96       0.1620E-3     3.301   
   0.2103       0.8650E-1     18.99       0.1702E-3     3.301   
   0.2203       0.9098E-1     19.03       0.1783E-3     3.301   
   0.2303       0.9551E-1     19.07       0.1864E-3     3.302   
   0.2403       0.1001        19.11       0.1945E-3     3.302   
   0.2503       0.1047        19.15       0.2026E-3     3.302   
   0.2603       0.1095        19.19       0.2107E-3     3.302   
   0.2703       0.1142        19.23       0.2189E-3     3.302   
   0.2804       0.1191        19.28       0.2270E-3     3.302   
   0.2904       0.1240        19.33       0.2351E-3     3.302   
   0.3004       0.1290        19.38       0.2432E-3     3.302   
   0.3104       0.1341        19.43       0.2514E-3     3.302   
   0.3204       0.1392        19.49       0.2595E-3     3.302   
   0.3304       0.1445        19.54       0.2676E-3     3.302   
   0.3404       0.1498        19.60       0.2758E-3     3.303   
   0.3504       0.1552        19.66       0.2839E-3     3.303   
   0.3605       0.1608        19.73       0.2921E-3     3.303   
   0.3705       0.1664        19.79       0.3002E-3     3.303   
   0.3805       0.1722        19.86       0.3083E-3     3.303   
   0.3905       0.1780        19.93       0.3165E-3     3.303   
   0.4005       0.1840        20.00       0.3246E-3     3.303   
   0.4105       0.1901        20.08       0.3328E-3     3.303   
   0.4205       0.1963        20.15       0.3410E-3     3.304   
   0.4305       0.2027        20.23       0.3491E-3     3.304   
   0.4406       0.2092        20.32       0.3573E-3     3.304   
   0.4506       0.2159        20.40       0.3655E-3     3.304   
   0.4606       0.2227        20.49       0.3736E-3     3.304   
   0.4706       0.2297        20.58       0.3818E-3     3.304   
   0.4806       0.2369        20.67       0.3900E-3     3.304   
   0.4906       0.2442        20.77       0.3981E-3     3.305   
   0.5006       0.2517        20.87       0.4063E-3     3.305   
   0.5106       0.2594        20.97       0.4145E-3     3.305   
   0.5207       0.2673        21.08       0.4227E-3     3.305   
   0.5307       0.2755        21.18       0.4309E-3     3.305   
   0.5407       0.2838        21.30       0.4391E-3     3.305   
   0.5507       0.2924        21.41       0.4473E-3     3.306   
   0.5607       0.3012        21.53       0.4555E-3     3.306   
   0.5707       0.3103        21.65       0.4637E-3     3.306   
   0.5807       0.3197        21.78       0.4719E-3     3.306   
   0.5907       0.3293        21.91       0.4801E-3     3.306   
   0.6008       0.3392        22.04       0.4884E-3     3.307   
   0.6108       0.3494        22.18       0.4966E-3     3.307   
   0.6208       0.3600        22.32       0.5048E-3     3.307   
   0.6308       0.3709        22.47       0.5130E-3     3.307   
   0.6408       0.3821        22.62       0.5213E-3     3.307   
   0.6508       0.3938        22.77       0.5295E-3     3.308   
   0.6608       0.4058        22.93       0.5378E-3     3.308   
   0.6708       0.4182        23.10       0.5460E-3     3.308   
   0.6809       0.4311        23.27       0.5543E-3     3.308   
   0.6909       0.4444        23.44       0.5625E-3     3.308   
   0.7009       0.4582        23.62       0.5708E-3     3.309   
   0.7109       0.4725        23.81       0.5791E-3     3.309   
   0.7209       0.4873        24.00       0.5873E-3     3.309   
   0.7309       0.5027        24.20       0.5956E-3     3.309   
   0.7409       0.5187        24.40       0.6039E-3     3.310   
   0.7509       0.5353        24.61       0.6122E-3     3.310   
   0.7610       0.5526        24.83       0.6205E-3     3.310   
   0.7710       0.5706        25.05       0.6288E-3     3.310   
   0.7810       0.5893        25.29       0.6371E-3     3.311   
   0.7910       0.6088        25.52       0.6454E-3     3.311   
   0.8010       0.6291        25.77       0.6537E-3     3.311   
   0.8110       0.6503        26.03       0.6621E-3     3.311   
   0.8210       0.6724        26.29       0.6704E-3     3.312   
   0.8310       0.6956        26.56       0.6787E-3     3.312   
   0.8411       0.7198        26.85       0.6871E-3     3.312   
   0.8511       0.7451        27.14       0.6954E-3     3.312   
   0.8611       0.7716        27.44       0.7038E-3     3.313   
   0.8711       0.7994        27.75       0.7121E-3     3.313   
   0.8811       0.8285        28.08       0.7205E-3     3.313   
   0.8911       0.8591        28.42       0.7288E-3     3.314   
   0.9011       0.8913        28.77       0.7372E-3     3.314   
   0.9111       0.9251        29.13       0.7456E-3     3.314   
   0.9212       0.9607        29.50       0.7540E-3     3.314   
   0.9312       0.9982        29.89       0.7624E-3     3.315   
   0.9412        1.038        30.30       0.7708E-3     3.315   
   0.9512        1.080        30.72       0.7792E-3     3.315   
   0.9612        1.124        31.16       0.7876E-3     3.316   
   0.9712        1.170        31.62       0.7960E-3     3.316   
   0.9812        1.220        32.09       0.8045E-3     3.316   
   0.9912        1.273        32.59       0.8129E-3     3.317   
    1.001        1.328        33.11       0.8214E-3     3.317   
    1.011        1.388        33.65       0.8298E-3     3.317   
    1.021        1.451        34.21       0.8383E-3     3.318   
    1.031        1.518        34.81       0.8467E-3     3.318   
    1.041        1.590        35.42       0.8552E-3     3.318   
    1.051        1.667        36.07       0.8637E-3     3.319   
    1.061        1.750        36.75       0.8722E-3     3.319   
    1.071        1.838        37.46       0.8807E-3     3.319   
    1.081        1.933        38.21       0.8892E-3     3.320   
    1.091        2.035        39.00       0.8977E-3     3.320   
    1.101        2.146        39.83       0.9062E-3     3.320   
    1.111        2.265        40.71       0.9147E-3     3.321   
    1.121        2.394        41.63       0.9233E-3     3.321   
    1.131        2.535        42.61       0.9318E-3     3.322   
    1.141        2.688        43.64       0.9403E-3     3.322   
    1.151        2.854        44.74       0.9489E-3     3.322   
    1.161        3.037        45.90       0.9575E-3     3.323   
    1.171        3.237        47.14       0.9660E-3     3.323   
    1.181        3.457        48.46       0.9746E-3     3.323   
    1.191        3.701        49.88       0.9832E-3     3.324   
    1.202        3.970        51.39       0.9918E-3     3.324   
    1.212        4.270        53.01       0.1000E-2     3.325   
    1.222        4.605        54.75       0.1009E-2     3.325   
    1.232        4.981        56.63       0.1018E-2     3.325   
    1.242        5.406        58.67       0.1026E-2     3.326   
    1.252        5.888        60.87       0.1035E-2     3.326   
    1.262        6.441        63.27       0.1044E-2     3.327   
    1.272        7.080        65.89       0.1052E-2     3.327   
    1.282        7.828        68.75       0.1061E-2     3.328   
    1.292        8.711        71.88       0.1070E-2     3.328   
    1.302        9.747        75.28       0.1078E-2     3.328   
    1.312        10.90        78.98       0.1087E-2     3.329   
    1.322        12.16        83.13       0.1096E-2     3.329   
    1.332        13.63        87.87       0.1104E-2     3.330   
    1.342        15.44        93.28       0.1113E-2     3.330   
    1.352        17.71        99.45       0.1122E-2     3.331   
    1.362        20.55        106.5       0.1131E-2     3.331   
    1.372        24.15        114.7       0.1139E-2     3.331   
    1.382        28.79        124.1       0.1148E-2     3.332   
    1.392        34.88        135.3       0.1157E-2     3.332   
    1.402        43.07        148.4       0.1166E-2     3.333   
    1.412        54.39        164.2       0.1175E-2     3.333   
    1.422        70.55        183.0       0.1183E-2     3.334   
    1.432        94.47        205.3       0.1192E-2     3.334   
    1.442        131.3        230.5       0.1201E-2     3.335   
    1.452        189.7        254.6       0.1210E-2     3.335   
    1.462        282.0        262.7       0.1219E-2     3.336   
    1.472        409.4        214.9       0.1228E-2     3.336   
    1.482        510.2        62.11       0.1236E-2     3.337   
    1.492        476.5       -132.5       0.1245E-2     3.337   
    1.502        349.8       -235.9       0.1254E-2     3.338   
    1.512        235.9       -251.8       0.1263E-2     3.338   
    1.522        160.2       -233.4       0.1272E-2     3.339   
    1.532        112.8       -207.9       0.1281E-2     3.339   
    1.542        82.56       -183.8       0.1290E-2     3.340   
    1.552        62.57       -163.1       0.1299E-2     3.340   
    1.562        48.85       -145.7       0.1308E-2     3.341   
    1.572        39.08       -131.2       0.1317E-2     3.341   
    1.582        31.92       -119.0       0.1326E-2     3.342   
    1.592        26.53       -108.7       0.1335E-2     3.342   
    1.602        22.38       -99.83       0.1344E-2     3.343   
    1.612        19.12       -92.21       0.1353E-2     3.343   
    1.622        16.52       -85.59       0.1362E-2     3.344   
    1.632        14.41       -79.78       0.1371E-2     3.345   
    1.642        12.67       -74.65       0.1380E-2     3.345   
    1.652        11.23       -70.10       0.1389E-2     3.346   
    1.662        10.02       -66.02       0.1398E-2     3.346   
    1.672        8.995       -62.36       0.1407E-2     3.347   
    1.682        8.117       -59.05       0.1416E-2     3.347   
    1.692        7.361       -56.05       0.1425E-2     3.348   
    1.702        6.705       -53.31       0.1435E-2     3.348   
    1.712        6.132       -50.81       0.1444E-2     3.349   
    1.722        5.629       -48.51       0.1453E-2     3.350   
    1.732        5.186       -46.39       0.1462E-2     3.350   
    1.742        4.792       -44.43       0.1471E-2     3.351   
    1.752        4.441       -42.62       0.1480E-2     3.351   
    1.762        4.127       -40.94       0.1490E-2     3.352   
    1.772        3.845       -39.36       0.1499E-2     3.353   
    1.782        3.591       -37.90       0.1508E-2     3.353   
    1.792        3.360       -36.53       0.1517E-2     3.354   
    1.802        3.152       -35.24       0.1527E-2     3.354   
    1.812        2.962       -34.03       0.1536E-2     3.355   
    1.822        2.788       -32.89       0.1545E-2     3.356   
    1.832        2.629       -31.82       0.1555E-2     3.356   
    1.842        2.483       -30.81       0.1564E-2     3.357   
    1.852        2.349       -29.85       0.1573E-2     3.358   
    1.862        2.225       -28.94       0.1583E-2     3.358   
    1.872        2.111       -28.08       0.1592E-2     3.359   
    1.882        2.005       -27.26       0.1601E-2     3.359   
    1.892        1.907       -26.49       0.1611E-2     3.360   
    1.902        1.816       -25.75       0.1620E-2     3.361   
    1.912        1.731       -25.04       0.1630E-2     3.361   
    1.922        1.652       -24.37       0.1639E-2     3.362   
    1.932        1.578       -23.73       0.1649E-2     3.363   
    1.942        1.509       -23.11       0.1658E-2     3.363   
    1.952        1.445       -22.52       0.1667E-2     3.364   
    1.962        1.384       -21.96       0.1677E-2     3.365   
    1.972        1.327       -21.42       0.1686E-2     3.365   
    1.982        1.273       -20.90       0.1696E-2     3.366   
    1.992        1.223       -20.41       0.1706E-2     3.367   
    2.003        1.175       -19.93       0.1715E-2     3.367   
    2.013        1.131       -19.47       0.1725E-2     3.368   
    2.023        1.088       -19.03       0.1734E-2     3.369   
    2.033        1.048       -18.60       0.1744E-2     3.369   
    2.043        1.010       -18.19       0.1754E-2     3.370   
    2.053       0.9742       -17.79       0.1763E-2     3.371   
    2.063       0.9401       -17.41       0.1773E-2     3.372   
    2.073       0.9077       -17.04       0.1783E-2     3.372   
    2.083       0.8769       -16.69       0.1792E-2     3.373   
    2.093       0.8477       -16.34       0.1802E-2     3.374   
    2.103       0.8199       -16.01       0.1812E-2     3.374   
    2.113       0.7934       -15.69       0.1821E-2     3.375   
    2.123       0.7681       -15.38       0.1831E-2     3.376   
    2.133       0.7440       -15.08       0.1841E-2     3.377   
    2.143       0.7210       -14.78       0.1851E-2     3.377   
    2.153       0.6990       -14.50       0.1861E-2     3.378   
    2.163       0.6780       -14.22       0.1870E-2     3.379   
    2.173       0.6579       -13.96       0.1880E-2     3.380   
    2.183       0.6387       -13.70       0.1890E-2     3.380   
    2.193       0.6203       -13.45       0.1900E-2     3.381   
    2.203       0.6026       -13.20       0.1910E-2     3.382   
    2.213       0.5857       -12.97       0.1920E-2     3.383   
    2.223       0.5695       -12.74       0.1930E-2     3.383   
    2.233       0.5539       -12.51       0.1940E-2     3.384   
    2.243       0.5390       -12.29       0.1950E-2     3.385   
    2.253       0.5246       -12.08       0.1960E-2     3.386   
    2.263       0.5108       -11.87       0.1970E-2     3.387   
    2.273       0.4976       -11.67       0.1980E-2     3.387   
    2.283       0.4848       -11.48       0.1990E-2     3.388   
    2.293       0.4725       -11.28       0.2000E-2     3.389   
    2.303       0.4607       -11.10       0.2010E-2     3.390   
    2.313       0.4493       -10.92       0.2020E-2     3.391   
    2.323       0.4383       -10.74       0.2030E-2     3.391   
    2.333       0.4278       -10.57       0.2040E-2     3.392   
    2.343       0.4176       -10.40       0.2050E-2     3.393   
    2.353       0.4078       -10.23       0.2061E-2     3.394   
    2.363       0.3984       -10.07       0.2071E-2     3.395   
    2.373       0.3894       -9.913       0.2081E-2     3.395   
    2.383       0.3807       -9.759       0.2091E-2     3.396   
    2.393       0.3723       -9.608       0.2102E-2     3.397   
    2.403       0.3644       -9.461       0.2112E-2     3.398   
    2.413       0.3569       -9.317       0.2122E-2     3.399   
    2.423       0.3499       -9.176       0.2132E-2     3.400   
    2.433       0.3435       -9.038       0.2143E-2     3.401   
    2.443       0.3379       -8.903       0.2153E-2     3.401   
    2.453       0.3335       -8.770       0.2164E-2     3.402   
    2.463       0.3309       -8.640       0.2174E-2     3.403   
    2.473       0.3310       -8.515       0.2184E-2     3.404   
    2.483       0.3326       -8.397       0.2195E-2     3.405   
    2.493       0.3301       -8.289       0.2205E-2     3.406   
    2.503       0.3189       -8.182       0.2216E-2     3.407   
    2.513       0.3048       -8.070       0.2226E-2     3.408   
    2.523       0.2928       -7.957       0.2237E-2     3.408   
    2.533       0.2832       -7.845       0.2247E-2     3.409   
    2.543       0.2753       -7.734       0.2258E-2     3.410   
    2.553       0.2684       -7.626       0.2269E-2     3.411   
    2.563       0.2622       -7.521       0.2279E-2     3.412   
    2.573       0.2565       -7.417       0.2290E-2     3.413   
    2.583       0.2511       -7.316       0.2301E-2     3.414   
    2.593       0.2460       -7.216       0.2311E-2     3.415   
    2.603       0.2411       -7.119       0.2322E-2     3.416   
    2.613       0.2364       -7.024       0.2333E-2     3.417   
    2.623       0.2319       -6.930       0.2343E-2     3.418   
    2.633       0.2275       -6.838       0.2354E-2     3.419   
    2.643       0.2233       -6.748       0.2365E-2     3.420   
    2.653       0.2192       -6.660       0.2376E-2     3.420   
    2.663       0.2152       -6.573       0.2387E-2     3.421   
    2.673       0.2113       -6.487       0.2398E-2     3.422   
    2.683       0.2075       -6.404       0.2408E-2     3.423   
    2.693       0.2039       -6.321       0.2419E-2     3.424   
    2.703       0.2003       -6.240       0.2430E-2     3.425   
    2.713       0.1968       -6.161       0.2441E-2     3.426   
    2.723       0.1935       -6.083       0.2452E-2     3.427   
    2.733       0.1902       -6.006       0.2463E-2     3.428   
    2.743       0.1870       -5.931       0.2474E-2     3.429   
    2.753       0.1838       -5.856       0.2485E-2     3.430   
    2.763       0.1808       -5.784       0.2496E-2     3.431   
    2.773       0.1778       -5.712       0.2508E-2     3.432   
    2.783       0.1749       -5.641       0.2519E-2     3.433   
