#                                                           
#  /$$     /$$ /$$$$$$  /$$      /$$ /$$$$$$$   /$$$$$$     
# |  $$   /$$//$$__  $$| $$$    /$$$| $$__  $$ /$$__  $$    
#  \  $$ /$$/| $$  \ $$| $$$$  /$$$$| $$  \ $$| $$  \ $$    
#   \  $$$$/ | $$$$$$$$| $$ $$/$$ $$| $$$$$$$ | $$  | $$    
#    \  $$/  | $$__  $$| $$  $$$| $$| $$__  $$| $$  | $$    
#     | $$   | $$  | $$| $$\  $ | $$| $$  \ $$| $$  | $$    
#     | $$   | $$  | $$| $$ \/  | $$| $$$$$$$/|  $$$$$$/    
#     |__/   |__/  |__/|__/     |__/|_______/  \______/     
#                                                           
#       Version 4.3.0 Revision 15624 Hash 7ed12fb           
#                     MPI+SLK Build                         
#               http://www.yambo-code.org                   
#
# Absorption @ Q(1) [q->0 direction] :0.1000E-4  0.000     0.000   
#
#
# - Energies      are Teter 93(XC)
# - Wavefunctions are Teter 93(XC)
#
# - The Green`s function is Retarded -
# - Using the Length Gauge -
# - [r,Vnl] *is* included -
#
#   BSK|Identifier              :7301
#      |Dimension               :9
#      |Bands                   :1 - 10
#      |Exchange           [res]: yes
#      |Correlation        [res]: no
#      |Kernel`s coupling       : yes
#      |Exchange           [cpl]: yes
#      |Correlation        [cpl]: no
#      |W interaction is bare   : no
#      |ALDA kernel in R-space  : yes
#      |RL vectors    [exchange]:4945
#      |E/h energy range    [ev]:-1.000000 - -1.000000
#      |Coupling range     [o/o]: 100.0000 -  100.0000
#
#    E/ev[1]      EPS-Im[2]    EPS-Re[3]    EPSo-Im[4]   EPSo-Re[5]
#
    0.000       0.2205E-8     1.014        0.000        1.015   
   0.2002E-1    0.2934E-6     1.014       0.3378E-6     1.015   
   0.4004E-1    0.5846E-6     1.014       0.6755E-6     1.015   
   0.6006E-1    0.8758E-6     1.014       0.1013E-5     1.015   
   0.8008E-1    0.1167E-5     1.014       0.1351E-5     1.015   
   0.1001       0.1458E-5     1.014       0.1689E-5     1.015   
   0.1201       0.1750E-5     1.014       0.2027E-5     1.015   
   0.1401       0.2041E-5     1.014       0.2365E-5     1.015   
   0.1602       0.2332E-5     1.014       0.2703E-5     1.015   
   0.1802       0.2624E-5     1.014       0.3041E-5     1.015   
   0.2002       0.2915E-5     1.014       0.3379E-5     1.015   
   0.2202       0.3207E-5     1.014       0.3717E-5     1.015   
   0.2402       0.3499E-5     1.014       0.4056E-5     1.015   
   0.2603       0.3790E-5     1.014       0.4394E-5     1.015   
   0.2803       0.4082E-5     1.014       0.4733E-5     1.015   
   0.3003       0.4374E-5     1.014       0.5071E-5     1.015   
   0.3203       0.4666E-5     1.014       0.5410E-5     1.015   
   0.3403       0.4958E-5     1.014       0.5749E-5     1.015   
   0.3604       0.5251E-5     1.014       0.6088E-5     1.015   
   0.3804       0.5543E-5     1.014       0.6428E-5     1.015   
   0.4004       0.5836E-5     1.014       0.6767E-5     1.015   
   0.4204       0.6128E-5     1.014       0.7107E-5     1.015   
   0.4404       0.6421E-5     1.014       0.7447E-5     1.015   
   0.4605       0.6714E-5     1.014       0.7787E-5     1.015   
   0.4805       0.7008E-5     1.014       0.8127E-5     1.015   
   0.5005       0.7301E-5     1.014       0.8468E-5     1.015   
   0.5205       0.7595E-5     1.014       0.8808E-5     1.015   
   0.5405       0.7888E-5     1.014       0.9149E-5     1.015   
   0.5606       0.8182E-5     1.014       0.9491E-5     1.015   
   0.5806       0.8477E-5     1.014       0.9832E-5     1.015   
   0.6006       0.8771E-5     1.014       0.1017E-4     1.015   
   0.6206       0.9066E-5     1.014       0.1052E-4     1.015   
   0.6406       0.9361E-5     1.014       0.1086E-4     1.015   
   0.6607       0.9656E-5     1.014       0.1120E-4     1.015   
   0.6807       0.9951E-5     1.014       0.1154E-4     1.015   
   0.7007       0.1025E-4     1.014       0.1189E-4     1.015   
   0.7207       0.1054E-4     1.014       0.1223E-4     1.015   
   0.7407       0.1084E-4     1.014       0.1257E-4     1.015   
   0.7608       0.1114E-4     1.014       0.1292E-4     1.015   
   0.7808       0.1143E-4     1.014       0.1326E-4     1.015   
   0.8008       0.1173E-4     1.014       0.1361E-4     1.015   
   0.8208       0.1203E-4     1.014       0.1395E-4     1.015   
   0.8408       0.1232E-4     1.014       0.1430E-4     1.015   
   0.8609       0.1262E-4     1.014       0.1465E-4     1.015   
   0.8809       0.1292E-4     1.014       0.1499E-4     1.015   
   0.9009       0.1322E-4     1.014       0.1534E-4     1.015   
   0.9209       0.1352E-4     1.014       0.1569E-4     1.015   
   0.9409       0.1382E-4     1.014       0.1603E-4     1.015   
   0.9610       0.1412E-4     1.014       0.1638E-4     1.015   
   0.9810       0.1442E-4     1.014       0.1673E-4     1.015   
    1.001       0.1472E-4     1.014       0.1708E-4     1.015   
    1.021       0.1502E-4     1.014       0.1743E-4     1.015   
    1.041       0.1532E-4     1.014       0.1778E-4     1.015   
    1.061       0.1562E-4     1.014       0.1813E-4     1.015   
    1.081       0.1592E-4     1.014       0.1848E-4     1.015   
    1.101       0.1622E-4     1.014       0.1883E-4     1.015   
    1.121       0.1653E-4     1.014       0.1919E-4     1.015   
    1.141       0.1683E-4     1.014       0.1954E-4     1.015   
    1.161       0.1713E-4     1.014       0.1989E-4     1.015   
    1.181       0.1744E-4     1.014       0.2024E-4     1.015   
    1.201       0.1774E-4     1.014       0.2060E-4     1.015   
    1.221       0.1805E-4     1.014       0.2095E-4     1.015   
    1.241       0.1835E-4     1.014       0.2131E-4     1.015   
    1.261       0.1866E-4     1.014       0.2167E-4     1.015   
    1.281       0.1897E-4     1.014       0.2202E-4     1.015   
    1.301       0.1927E-4     1.014       0.2238E-4     1.015   
    1.321       0.1958E-4     1.014       0.2274E-4     1.015   
    1.341       0.1989E-4     1.014       0.2310E-4     1.015   
    1.361       0.2020E-4     1.014       0.2346E-4     1.015   
    1.381       0.2051E-4     1.014       0.2382E-4     1.015   
    1.401       0.2082E-4     1.014       0.2418E-4     1.015   
    1.421       0.2113E-4     1.014       0.2454E-4     1.015   
    1.441       0.2144E-4     1.014       0.2490E-4     1.015   
    1.461       0.2175E-4     1.014       0.2526E-4     1.015   
    1.481       0.2206E-4     1.014       0.2562E-4     1.015   
    1.502       0.2237E-4     1.014       0.2599E-4     1.015   
    1.522       0.2268E-4     1.014       0.2635E-4     1.015   
    1.542       0.2300E-4     1.014       0.2672E-4     1.015   
    1.562       0.2331E-4     1.014       0.2709E-4     1.015   
    1.582       0.2363E-4     1.014       0.2745E-4     1.015   
    1.602       0.2394E-4     1.014       0.2782E-4     1.015   
    1.622       0.2426E-4     1.014       0.2819E-4     1.015   
    1.642       0.2457E-4     1.014       0.2856E-4     1.015   
    1.662       0.2489E-4     1.014       0.2893E-4     1.015   
    1.682       0.2521E-4     1.014       0.2930E-4     1.015   
    1.702       0.2553E-4     1.014       0.2967E-4     1.015   
    1.722       0.2585E-4     1.014       0.3004E-4     1.015   
    1.742       0.2617E-4     1.014       0.3042E-4     1.015   
    1.762       0.2649E-4     1.014       0.3079E-4     1.015   
    1.782       0.2681E-4     1.014       0.3117E-4     1.015   
    1.802       0.2713E-4     1.014       0.3154E-4     1.015   
    1.822       0.2746E-4     1.014       0.3192E-4     1.015   
    1.842       0.2778E-4     1.014       0.3230E-4     1.015   
    1.862       0.2810E-4     1.014       0.3268E-4     1.016   
    1.882       0.2843E-4     1.014       0.3306E-4     1.016   
    1.902       0.2875E-4     1.014       0.3344E-4     1.016   
    1.922       0.2908E-4     1.014       0.3382E-4     1.016   
    1.942       0.2941E-4     1.014       0.3420E-4     1.016   
    1.962       0.2974E-4     1.014       0.3459E-4     1.016   
    1.982       0.3007E-4     1.014       0.3497E-4     1.016   
    2.002       0.3040E-4     1.014       0.3536E-4     1.016   
    2.022       0.3073E-4     1.014       0.3574E-4     1.016   
    2.042       0.3106E-4     1.014       0.3613E-4     1.016   
    2.062       0.3139E-4     1.014       0.3652E-4     1.016   
    2.082       0.3172E-4     1.014       0.3691E-4     1.016   
    2.102       0.3206E-4     1.014       0.3730E-4     1.016   
    2.122       0.3239E-4     1.014       0.3769E-4     1.016   
    2.142       0.3273E-4     1.014       0.3809E-4     1.016   
    2.162       0.3307E-4     1.014       0.3848E-4     1.016   
    2.182       0.3340E-4     1.014       0.3888E-4     1.016   
    2.202       0.3374E-4     1.014       0.3927E-4     1.016   
    2.222       0.3408E-4     1.014       0.3967E-4     1.016   
    2.242       0.3442E-4     1.014       0.4007E-4     1.016   
    2.262       0.3476E-4     1.014       0.4047E-4     1.016   
    2.282       0.3511E-4     1.014       0.4087E-4     1.016   
    2.302       0.3545E-4     1.014       0.4128E-4     1.016   
    2.322       0.3579E-4     1.014       0.4168E-4     1.016   
    2.342       0.3614E-4     1.014       0.4208E-4     1.016   
    2.362       0.3648E-4     1.014       0.4249E-4     1.016   
    2.382       0.3683E-4     1.015       0.4290E-4     1.016   
    2.402       0.3718E-4     1.015       0.4331E-4     1.016   
    2.422       0.3753E-4     1.015       0.4372E-4     1.016   
    2.442       0.3788E-4     1.015       0.4413E-4     1.016   
    2.462       0.3823E-4     1.015       0.4454E-4     1.016   
    2.482       0.3858E-4     1.015       0.4496E-4     1.016   
    2.503       0.3894E-4     1.015       0.4537E-4     1.016   
    2.523       0.3929E-4     1.015       0.4579E-4     1.016   
    2.543       0.3965E-4     1.015       0.4621E-4     1.016   
    2.563       0.4001E-4     1.015       0.4663E-4     1.016   
    2.583       0.4036E-4     1.015       0.4705E-4     1.016   
    2.603       0.4072E-4     1.015       0.4747E-4     1.016   
    2.623       0.4108E-4     1.015       0.4790E-4     1.016   
    2.643       0.4145E-4     1.015       0.4832E-4     1.016   
    2.663       0.4181E-4     1.015       0.4875E-4     1.016   
    2.683       0.4217E-4     1.015       0.4918E-4     1.016   
    2.703       0.4254E-4     1.015       0.4961E-4     1.016   
    2.723       0.4290E-4     1.015       0.5004E-4     1.016   
    2.743       0.4327E-4     1.015       0.5047E-4     1.016   
    2.763       0.4364E-4     1.015       0.5091E-4     1.016   
    2.783       0.4401E-4     1.015       0.5134E-4     1.016   
    2.803       0.4438E-4     1.015       0.5178E-4     1.016   
    2.823       0.4475E-4     1.015       0.5222E-4     1.016   
    2.843       0.4513E-4     1.015       0.5266E-4     1.016   
    2.863       0.4550E-4     1.015       0.5310E-4     1.016   
    2.883       0.4588E-4     1.015       0.5355E-4     1.016   
    2.903       0.4626E-4     1.015       0.5399E-4     1.016   
    2.923       0.4664E-4     1.015       0.5444E-4     1.016   
    2.943       0.4702E-4     1.015       0.5489E-4     1.016   
    2.963       0.4740E-4     1.015       0.5534E-4     1.016   
    2.983       0.4778E-4     1.015       0.5579E-4     1.016   
    3.003       0.4817E-4     1.015       0.5625E-4     1.016   
    3.023       0.4856E-4     1.015       0.5671E-4     1.016   
    3.043       0.4894E-4     1.015       0.5716E-4     1.016   
    3.063       0.4933E-4     1.015       0.5762E-4     1.016   
    3.083       0.4972E-4     1.015       0.5809E-4     1.016   
    3.103       0.5012E-4     1.015       0.5855E-4     1.016   
    3.123       0.5051E-4     1.015       0.5902E-4     1.016   
    3.143       0.5090E-4     1.015       0.5948E-4     1.016   
    3.163       0.5130E-4     1.015       0.5995E-4     1.016   
    3.183       0.5170E-4     1.015       0.6042E-4     1.016   
    3.203       0.5210E-4     1.015       0.6090E-4     1.016   
    3.223       0.5250E-4     1.015       0.6137E-4     1.016   
    3.243       0.5290E-4     1.015       0.6185E-4     1.016   
    3.263       0.5331E-4     1.015       0.6233E-4     1.016   
    3.283       0.5371E-4     1.015       0.6281E-4     1.016   
    3.303       0.5412E-4     1.015       0.6330E-4     1.016   
    3.323       0.5453E-4     1.015       0.6378E-4     1.016   
    3.343       0.5494E-4     1.015       0.6427E-4     1.016   
    3.363       0.5535E-4     1.015       0.6476E-4     1.016   
    3.383       0.5577E-4     1.015       0.6525E-4     1.016   
    3.403       0.5619E-4     1.015       0.6575E-4     1.016   
    3.423       0.5660E-4     1.015       0.6624E-4     1.016   
    3.443       0.5702E-4     1.015       0.6674E-4     1.016   
    3.463       0.5744E-4     1.015       0.6724E-4     1.016   
    3.483       0.5787E-4     1.015       0.6774E-4     1.016   
    3.504       0.5829E-4     1.015       0.6825E-4     1.016   
    3.524       0.5872E-4     1.015       0.6876E-4     1.016   
    3.544       0.5915E-4     1.015       0.6927E-4     1.016   
    3.564       0.5958E-4     1.015       0.6978E-4     1.016   
    3.584       0.6001E-4     1.015       0.7029E-4     1.016   
    3.604       0.6045E-4     1.015       0.7081E-4     1.016   
    3.624       0.6088E-4     1.015       0.7133E-4     1.016   
    3.644       0.6132E-4     1.015       0.7185E-4     1.016   
    3.664       0.6176E-4     1.015       0.7238E-4     1.016   
    3.684       0.6220E-4     1.015       0.7290E-4     1.016   
    3.704       0.6265E-4     1.015       0.7343E-4     1.016   
    3.724       0.6309E-4     1.015       0.7397E-4     1.016   
    3.744       0.6354E-4     1.015       0.7450E-4     1.016   
    3.764       0.6399E-4     1.015       0.7504E-4     1.017   
    3.784       0.6444E-4     1.015       0.7558E-4     1.017   
    3.804       0.6490E-4     1.015       0.7612E-4     1.017   
    3.824       0.6535E-4     1.015       0.7666E-4     1.017   
    3.844       0.6581E-4     1.015       0.7721E-4     1.017   
    3.864       0.6627E-4     1.015       0.7776E-4     1.017   
    3.884       0.6674E-4     1.015       0.7832E-4     1.017   
    3.904       0.6720E-4     1.015       0.7887E-4     1.017   
    3.924       0.6767E-4     1.015       0.7943E-4     1.017   
    3.944       0.6814E-4     1.015       0.7999E-4     1.017   
    3.964       0.6861E-4     1.015       0.8056E-4     1.017   
    3.984       0.6908E-4     1.015       0.8112E-4     1.017   
    4.004       0.6956E-4     1.015       0.8169E-4     1.017   
    4.024       0.7004E-4     1.015       0.8227E-4     1.017   
    4.044       0.7052E-4     1.015       0.8284E-4     1.017   
    4.064       0.7100E-4     1.015       0.8342E-4     1.017   
    4.084       0.7149E-4     1.015       0.8401E-4     1.017   
    4.104       0.7198E-4     1.015       0.8459E-4     1.017   
    4.124       0.7247E-4     1.015       0.8518E-4     1.017   
    4.144       0.7296E-4     1.015       0.8577E-4     1.017   
    4.164       0.7345E-4     1.015       0.8637E-4     1.017   
    4.184       0.7395E-4     1.015       0.8696E-4     1.017   
    4.204       0.7445E-4     1.015       0.8756E-4     1.017   
    4.224       0.7496E-4     1.016       0.8817E-4     1.017   
    4.244       0.7546E-4     1.016       0.8878E-4     1.017   
    4.264       0.7597E-4     1.016       0.8939E-4     1.017   
    4.284       0.7648E-4     1.016       0.9000E-4     1.017   
    4.304       0.7699E-4     1.016       0.9062E-4     1.017   
    4.324       0.7751E-4     1.016       0.9124E-4     1.017   
    4.344       0.7803E-4     1.016       0.9187E-4     1.017   
    4.364       0.7855E-4     1.016       0.9249E-4     1.017   
    4.384       0.7907E-4     1.016       0.9313E-4     1.017   
    4.404       0.7960E-4     1.016       0.9376E-4     1.017   
    4.424       0.8013E-4     1.016       0.9440E-4     1.017   
    4.444       0.8066E-4     1.016       0.9504E-4     1.017   
    4.464       0.8120E-4     1.016       0.9569E-4     1.017   
    4.484       0.8174E-4     1.016       0.9634E-4     1.017   
    4.505       0.8228E-4     1.016       0.9699E-4     1.017   
    4.525       0.8282E-4     1.016       0.9765E-4     1.017   
    4.545       0.8337E-4     1.016       0.9831E-4     1.017   
    4.565       0.8392E-4     1.016       0.9898E-4     1.017   
    4.585       0.8447E-4     1.016       0.9964E-4     1.017   
    4.605       0.8503E-4     1.016       0.1003E-3     1.017   
    4.625       0.8559E-4     1.016       0.1010E-3     1.017   
    4.645       0.8615E-4     1.016       0.1017E-3     1.017   
    4.665       0.8672E-4     1.016       0.1024E-3     1.017   
    4.685       0.8729E-4     1.016       0.1030E-3     1.017   
    4.705       0.8786E-4     1.016       0.1037E-3     1.017   
    4.725       0.8844E-4     1.016       0.1044E-3     1.017   
    4.745       0.8901E-4     1.016       0.1051E-3     1.017   
    4.765       0.8960E-4     1.016       0.1058E-3     1.017   
    4.785       0.9018E-4     1.016       0.1066E-3     1.017   
    4.805       0.9077E-4     1.016       0.1073E-3     1.017   
    4.825       0.9136E-4     1.016       0.1080E-3     1.017   
    4.845       0.9196E-4     1.016       0.1087E-3     1.017   
    4.865       0.9256E-4     1.016       0.1094E-3     1.018   
    4.885       0.9316E-4     1.016       0.1102E-3     1.018   
    4.905       0.9377E-4     1.016       0.1109E-3     1.018   
    4.925       0.9438E-4     1.016       0.1117E-3     1.018   
    4.945       0.9499E-4     1.016       0.1124E-3     1.018   
    4.965       0.9561E-4     1.016       0.1132E-3     1.018   
    4.985       0.9623E-4     1.016       0.1139E-3     1.018   
    5.005       0.9685E-4     1.016       0.1147E-3     1.018   
    5.025       0.9748E-4     1.016       0.1154E-3     1.018   
    5.045       0.9811E-4     1.016       0.1162E-3     1.018   
    5.065       0.9875E-4     1.016       0.1170E-3     1.018   
    5.085       0.9939E-4     1.016       0.1178E-3     1.018   
    5.105       0.1000E-3     1.016       0.1185E-3     1.018   
    5.125       0.1007E-3     1.016       0.1193E-3     1.018   
    5.145       0.1013E-3     1.016       0.1201E-3     1.018   
    5.165       0.1020E-3     1.016       0.1209E-3     1.018   
    5.185       0.1026E-3     1.016       0.1217E-3     1.018   
    5.205       0.1033E-3     1.016       0.1226E-3     1.018   
    5.225       0.1040E-3     1.016       0.1234E-3     1.018   
    5.245       0.1047E-3     1.016       0.1242E-3     1.018   
    5.265       0.1053E-3     1.016       0.1250E-3     1.018   
    5.285       0.1060E-3     1.016       0.1259E-3     1.018   
    5.305       0.1067E-3     1.016       0.1267E-3     1.018   
    5.325       0.1074E-3     1.017       0.1275E-3     1.018   
    5.345       0.1081E-3     1.017       0.1284E-3     1.018   
    5.365       0.1088E-3     1.017       0.1292E-3     1.018   
    5.385       0.1095E-3     1.017       0.1301E-3     1.018   
    5.405       0.1102E-3     1.017       0.1310E-3     1.018   
    5.425       0.1109E-3     1.017       0.1319E-3     1.018   
    5.445       0.1116E-3     1.017       0.1327E-3     1.018   
    5.465       0.1123E-3     1.017       0.1336E-3     1.018   
    5.485       0.1131E-3     1.017       0.1345E-3     1.018   
    5.506       0.1138E-3     1.017       0.1354E-3     1.018   
    5.526       0.1145E-3     1.017       0.1363E-3     1.018   
    5.546       0.1153E-3     1.017       0.1372E-3     1.018   
    5.566       0.1160E-3     1.017       0.1382E-3     1.018   
    5.586       0.1168E-3     1.017       0.1391E-3     1.018   
    5.606       0.1175E-3     1.017       0.1400E-3     1.018   
    5.626       0.1183E-3     1.017       0.1410E-3     1.018   
