#                                                           
#   __   __     _        __  __       ____      U  ___  u   
#   \ \ / / U  /"\  U u |" \/ "| u U | __") u    \/"_ \/    
#    \ V /   \/ _ \/   \| |\/| |/   \|  _ \/     | | | |    
#   U_|"|_u  / ___ \    | |  | |     | |_) | .-,_| |_| |    
#     |_|   /_/   \_\   |_|  |_|     |____/   \_)-\___/     
# .-,//|(_   \\    >>  <<,-,,-.     _|| \\_        \\       
#  \_) (__) (__)  (__)  (./  \.)   (__) (__)      (__)      
#                                                           
#                                                           
#        Version 4.3.0 Revision 15746 Hash 61e4334          
#                      MPI+SLK Build                        
#                http://www.yambo-code.org                  
#
# EELS @ Q(1)  [q->0 direction]:0.1000E-4  0.000     0.000   
#
#
# - Energies      are Teter 93(XC)
# - Wavefunctions are Teter 93(XC)
#
# - The Green`s function is Retarded -
# - Using the Length Gauge -
# - [r,Vnl] *is* included -
#
#   BSK|Identifier              :3413
#      |Dimension               :9
#      |Bands                   :1 - 10
#      |Exchange           [res]: yes
#      |Correlation        [res]: no
#      |Kernel`s coupling       : yes
#      |Exchange           [cpl]: yes
#      |Correlation        [cpl]: no
#      |W interaction is bare   : no
#      |ALDA kernel in R-space  : yes
#      |RL vectors    [exchange]:4945
#      |E/h energy range    [ev]:-1.000000 - -1.000000
#      |Coupling range     [o/o]: 100.0000 -  100.0000
#
#    E/ev[1]      EEL-Im[2]    EEL-Re[3]    EELo-Im[4]   EELo-Re[5]
#
    0.000       0.2144E-8    -.9861       -0.000       -.9850   
   0.2002E-1    0.2853E-6    -.9861       0.3277E-6    -.9850   
   0.4004E-1    0.5685E-6    -.9861       0.6554E-6    -.9850   
   0.6006E-1    0.8516E-6    -.9861       0.9832E-6    -.9850   
   0.8008E-1    0.1135E-5    -.9861       0.1311E-5    -.9850   
   0.1001       0.1418E-5    -.9861       0.1639E-5    -.9850   
   0.1201       0.1701E-5    -.9861       0.1967E-5    -.9850   
   0.1401       0.1985E-5    -.9861       0.2294E-5    -.9850   
   0.1602       0.2268E-5    -.9861       0.2622E-5    -.9850   
   0.1802       0.2551E-5    -.9861       0.2950E-5    -.9850   
   0.2002       0.2835E-5    -.9861       0.3279E-5    -.9850   
   0.2202       0.3118E-5    -.9861       0.3607E-5    -.9850   
   0.2402       0.3402E-5    -.9861       0.3935E-5    -.9850   
   0.2603       0.3686E-5    -.9861       0.4263E-5    -.9850   
   0.2803       0.3970E-5    -.9861       0.4592E-5    -.9850   
   0.3003       0.4253E-5    -.9861       0.4921E-5    -.9850   
   0.3203       0.4537E-5    -.9861       0.5249E-5    -.9850   
   0.3403       0.4822E-5    -.9861       0.5578E-5    -.9850   
   0.3604       0.5106E-5    -.9861       0.5907E-5    -.9850   
   0.3804       0.5390E-5    -.9861       0.6237E-5    -.9850   
   0.4004       0.5675E-5    -.9861       0.6566E-5    -.9850   
   0.4204       0.5959E-5    -.9861       0.6896E-5    -.9850   
   0.4404       0.6244E-5    -.9861       0.7225E-5    -.9850   
   0.4605       0.6529E-5    -.9861       0.7555E-5    -.9850   
   0.4805       0.6814E-5    -.9861       0.7885E-5    -.9850   
   0.5005       0.7100E-5    -.9861       0.8216E-5    -.9850   
   0.5205       0.7385E-5    -.9861       0.8546E-5    -.9850   
   0.5405       0.7671E-5    -.9861       0.8877E-5    -.9850   
   0.5606       0.7956E-5    -.9861       0.9208E-5    -.9850   
   0.5806       0.8243E-5    -.9861       0.9539E-5    -.9850   
   0.6006       0.8529E-5    -.9861       0.9871E-5    -.9850   
   0.6206       0.8815E-5    -.9861       0.1020E-4    -.9850   
   0.6406       0.9102E-5    -.9861       0.1053E-4    -.9850   
   0.6607       0.9389E-5    -.9861       0.1087E-4    -.9850   
   0.6807       0.9676E-5    -.9861       0.1120E-4    -.9850   
   0.7007       0.9963E-5    -.9861       0.1153E-4    -.9850   
   0.7207       0.1025E-4    -.9861       0.1187E-4    -.9850   
   0.7407       0.1054E-4    -.9861       0.1220E-4    -.9850   
   0.7608       0.1083E-4    -.9861       0.1253E-4    -.9850   
   0.7808       0.1112E-4    -.9861       0.1287E-4    -.9850   
   0.8008       0.1140E-4    -.9861       0.1320E-4    -.9850   
   0.8208       0.1169E-4    -.9861       0.1354E-4    -.9850   
   0.8408       0.1198E-4    -.9861       0.1387E-4    -.9850   
   0.8609       0.1227E-4    -.9861       0.1421E-4    -.9850   
   0.8809       0.1256E-4    -.9861       0.1454E-4    -.9850   
   0.9009       0.1285E-4    -.9861       0.1488E-4    -.9850   
   0.9209       0.1314E-4    -.9861       0.1522E-4    -.9850   
   0.9409       0.1343E-4    -.9861       0.1556E-4    -.9850   
   0.9610       0.1373E-4    -.9861       0.1589E-4    -.9849   
   0.9810       0.1402E-4    -.9860       0.1623E-4    -.9849   
    1.001       0.1431E-4    -.9860       0.1657E-4    -.9849   
    1.021       0.1460E-4    -.9860       0.1691E-4    -.9849   
    1.041       0.1489E-4    -.9860       0.1725E-4    -.9849   
    1.061       0.1519E-4    -.9860       0.1759E-4    -.9849   
    1.081       0.1548E-4    -.9860       0.1793E-4    -.9849   
    1.101       0.1577E-4    -.9860       0.1827E-4    -.9849   
    1.121       0.1607E-4    -.9860       0.1861E-4    -.9849   
    1.141       0.1636E-4    -.9860       0.1895E-4    -.9849   
    1.161       0.1666E-4    -.9860       0.1930E-4    -.9849   
    1.181       0.1695E-4    -.9860       0.1964E-4    -.9849   
    1.201       0.1725E-4    -.9860       0.1998E-4    -.9849   
    1.221       0.1755E-4    -.9860       0.2033E-4    -.9849   
    1.241       0.1784E-4    -.9860       0.2067E-4    -.9849   
    1.261       0.1814E-4    -.9860       0.2102E-4    -.9849   
    1.281       0.1844E-4    -.9860       0.2136E-4    -.9849   
    1.301       0.1874E-4    -.9860       0.2171E-4    -.9849   
    1.321       0.1904E-4    -.9860       0.2206E-4    -.9849   
    1.341       0.1933E-4    -.9860       0.2240E-4    -.9849   
    1.361       0.1963E-4    -.9860       0.2275E-4    -.9849   
    1.381       0.1993E-4    -.9860       0.2310E-4    -.9849   
    1.401       0.2024E-4    -.9860       0.2345E-4    -.9849   
    1.421       0.2054E-4    -.9860       0.2380E-4    -.9849   
    1.441       0.2084E-4    -.9860       0.2415E-4    -.9849   
    1.461       0.2114E-4    -.9860       0.2450E-4    -.9848   
    1.481       0.2144E-4    -.9860       0.2485E-4    -.9848   
    1.502       0.2175E-4    -.9860       0.2521E-4    -.9848   
    1.522       0.2205E-4    -.9860       0.2556E-4    -.9848   
    1.542       0.2236E-4    -.9859       0.2591E-4    -.9848   
    1.562       0.2266E-4    -.9859       0.2627E-4    -.9848   
    1.582       0.2297E-4    -.9859       0.2663E-4    -.9848   
    1.602       0.2327E-4    -.9859       0.2698E-4    -.9848   
    1.622       0.2358E-4    -.9859       0.2734E-4    -.9848   
    1.642       0.2389E-4    -.9859       0.2770E-4    -.9848   
    1.662       0.2420E-4    -.9859       0.2806E-4    -.9848   
    1.682       0.2450E-4    -.9859       0.2841E-4    -.9848   
    1.702       0.2481E-4    -.9859       0.2878E-4    -.9848   
    1.722       0.2512E-4    -.9859       0.2914E-4    -.9848   
    1.742       0.2544E-4    -.9859       0.2950E-4    -.9848   
    1.762       0.2575E-4    -.9859       0.2986E-4    -.9848   
    1.782       0.2606E-4    -.9859       0.3022E-4    -.9848   
    1.802       0.2637E-4    -.9859       0.3059E-4    -.9848   
    1.822       0.2669E-4    -.9859       0.3095E-4    -.9847   
    1.842       0.2700E-4    -.9859       0.3132E-4    -.9847   
    1.862       0.2731E-4    -.9859       0.3169E-4    -.9847   
    1.882       0.2763E-4    -.9859       0.3206E-4    -.9847   
    1.902       0.2795E-4    -.9859       0.3242E-4    -.9847   
    1.922       0.2826E-4    -.9858       0.3279E-4    -.9847   
    1.942       0.2858E-4    -.9858       0.3317E-4    -.9847   
    1.962       0.2890E-4    -.9858       0.3354E-4    -.9847   
    1.982       0.2922E-4    -.9858       0.3391E-4    -.9847   
    2.002       0.2954E-4    -.9858       0.3428E-4    -.9847   
    2.022       0.2986E-4    -.9858       0.3466E-4    -.9847   
    2.042       0.3018E-4    -.9858       0.3503E-4    -.9847   
    2.062       0.3051E-4    -.9858       0.3541E-4    -.9847   
    2.082       0.3083E-4    -.9858       0.3579E-4    -.9847   
    2.102       0.3115E-4    -.9858       0.3617E-4    -.9847   
    2.122       0.3148E-4    -.9858       0.3655E-4    -.9846   
    2.142       0.3180E-4    -.9858       0.3693E-4    -.9846   
    2.162       0.3213E-4    -.9858       0.3731E-4    -.9846   
    2.182       0.3246E-4    -.9858       0.3769E-4    -.9846   
    2.202       0.3279E-4    -.9858       0.3808E-4    -.9846   
    2.222       0.3312E-4    -.9858       0.3846E-4    -.9846   
    2.242       0.3345E-4    -.9858       0.3885E-4    -.9846   
    2.262       0.3378E-4    -.9857       0.3923E-4    -.9846   
    2.282       0.3411E-4    -.9857       0.3962E-4    -.9846   
    2.302       0.3444E-4    -.9857       0.4001E-4    -.9846   
    2.322       0.3478E-4    -.9857       0.4040E-4    -.9846   
    2.342       0.3511E-4    -.9857       0.4080E-4    -.9846   
    2.362       0.3545E-4    -.9857       0.4119E-4    -.9846   
    2.382       0.3579E-4    -.9857       0.4158E-4    -.9845   
    2.402       0.3612E-4    -.9857       0.4198E-4    -.9845   
    2.422       0.3646E-4    -.9857       0.4238E-4    -.9845   
    2.442       0.3680E-4    -.9857       0.4277E-4    -.9845   
    2.462       0.3714E-4    -.9857       0.4317E-4    -.9845   
    2.482       0.3749E-4    -.9857       0.4357E-4    -.9845   
    2.503       0.3783E-4    -.9857       0.4398E-4    -.9845   
    2.523       0.3817E-4    -.9857       0.4438E-4    -.9845   
    2.543       0.3852E-4    -.9856       0.4478E-4    -.9845   
    2.563       0.3886E-4    -.9856       0.4519E-4    -.9845   
    2.583       0.3921E-4    -.9856       0.4560E-4    -.9845   
    2.603       0.3956E-4    -.9856       0.4601E-4    -.9844   
    2.623       0.3991E-4    -.9856       0.4642E-4    -.9844   
    2.643       0.4026E-4    -.9856       0.4683E-4    -.9844   
    2.663       0.4061E-4    -.9856       0.4724E-4    -.9844   
    2.683       0.4096E-4    -.9856       0.4765E-4    -.9844   
    2.703       0.4132E-4    -.9856       0.4807E-4    -.9844   
    2.723       0.4167E-4    -.9856       0.4849E-4    -.9844   
    2.743       0.4203E-4    -.9856       0.4891E-4    -.9844   
    2.763       0.4239E-4    -.9856       0.4933E-4    -.9844   
    2.783       0.4275E-4    -.9855       0.4975E-4    -.9844   
    2.803       0.4311E-4    -.9855       0.5017E-4    -.9844   
    2.823       0.4347E-4    -.9855       0.5060E-4    -.9843   
    2.843       0.4383E-4    -.9855       0.5102E-4    -.9843   
    2.863       0.4419E-4    -.9855       0.5145E-4    -.9843   
    2.883       0.4456E-4    -.9855       0.5188E-4    -.9843   
    2.903       0.4493E-4    -.9855       0.5231E-4    -.9843   
    2.923       0.4529E-4    -.9855       0.5274E-4    -.9843   
    2.943       0.4566E-4    -.9855       0.5318E-4    -.9843   
    2.963       0.4603E-4    -.9855       0.5361E-4    -.9843   
    2.983       0.4640E-4    -.9855       0.5405E-4    -.9843   
    3.003       0.4678E-4    -.9854       0.5449E-4    -.9842   
    3.023       0.4715E-4    -.9854       0.5493E-4    -.9842   
    3.043       0.4753E-4    -.9854       0.5538E-4    -.9842   
    3.063       0.4790E-4    -.9854       0.5582E-4    -.9842   
    3.083       0.4828E-4    -.9854       0.5627E-4    -.9842   
    3.103       0.4866E-4    -.9854       0.5671E-4    -.9842   
    3.123       0.4904E-4    -.9854       0.5716E-4    -.9842   
    3.143       0.4943E-4    -.9854       0.5762E-4    -.9842   
    3.163       0.4981E-4    -.9854       0.5807E-4    -.9842   
    3.183       0.5020E-4    -.9854       0.5852E-4    -.9841   
    3.203       0.5058E-4    -.9853       0.5898E-4    -.9841   
    3.223       0.5097E-4    -.9853       0.5944E-4    -.9841   
    3.243       0.5136E-4    -.9853       0.5990E-4    -.9841   
    3.263       0.5175E-4    -.9853       0.6036E-4    -.9841   
    3.283       0.5215E-4    -.9853       0.6083E-4    -.9841   
    3.303       0.5254E-4    -.9853       0.6130E-4    -.9841   
    3.323       0.5294E-4    -.9853       0.6176E-4    -.9841   
    3.343       0.5334E-4    -.9853       0.6224E-4    -.9841   
    3.363       0.5374E-4    -.9853       0.6271E-4    -.9840   
    3.383       0.5414E-4    -.9853       0.6318E-4    -.9840   
    3.403       0.5454E-4    -.9852       0.6366E-4    -.9840   
    3.423       0.5494E-4    -.9852       0.6414E-4    -.9840   
    3.443       0.5535E-4    -.9852       0.6462E-4    -.9840   
    3.463       0.5576E-4    -.9852       0.6510E-4    -.9840   
    3.483       0.5617E-4    -.9852       0.6559E-4    -.9840   
    3.504       0.5658E-4    -.9852       0.6608E-4    -.9839   
    3.524       0.5699E-4    -.9852       0.6657E-4    -.9839   
    3.544       0.5741E-4    -.9852       0.6706E-4    -.9839   
    3.564       0.5782E-4    -.9852       0.6755E-4    -.9839   
    3.584       0.5824E-4    -.9851       0.6805E-4    -.9839   
    3.604       0.5866E-4    -.9851       0.6855E-4    -.9839   
    3.624       0.5908E-4    -.9851       0.6905E-4    -.9839   
    3.644       0.5951E-4    -.9851       0.6955E-4    -.9839   
    3.664       0.5993E-4    -.9851       0.7006E-4    -.9838   
    3.684       0.6036E-4    -.9851       0.7056E-4    -.9838   
    3.704       0.6079E-4    -.9851       0.7108E-4    -.9838   
    3.724       0.6122E-4    -.9851       0.7159E-4    -.9838   
    3.744       0.6165E-4    -.9850       0.7210E-4    -.9838   
    3.764       0.6209E-4    -.9850       0.7262E-4    -.9838   
    3.784       0.6253E-4    -.9850       0.7314E-4    -.9838   
    3.804       0.6297E-4    -.9850       0.7366E-4    -.9837   
    3.824       0.6341E-4    -.9850       0.7419E-4    -.9837   
    3.844       0.6385E-4    -.9850       0.7472E-4    -.9837   
    3.864       0.6430E-4    -.9850       0.7525E-4    -.9837   
    3.884       0.6474E-4    -.9850       0.7578E-4    -.9837   
    3.904       0.6519E-4    -.9849       0.7632E-4    -.9837   
    3.924       0.6564E-4    -.9849       0.7685E-4    -.9836   
    3.944       0.6610E-4    -.9849       0.7740E-4    -.9836   
    3.964       0.6655E-4    -.9849       0.7794E-4    -.9836   
    3.984       0.6701E-4    -.9849       0.7849E-4    -.9836   
    4.004       0.6747E-4    -.9849       0.7903E-4    -.9836   
    4.024       0.6793E-4    -.9849       0.7959E-4    -.9836   
    4.044       0.6840E-4    -.9849       0.8014E-4    -.9836   
    4.064       0.6887E-4    -.9848       0.8070E-4    -.9835   
    4.084       0.6933E-4    -.9848       0.8126E-4    -.9835   
    4.104       0.6981E-4    -.9848       0.8182E-4    -.9835   
    4.124       0.7028E-4    -.9848       0.8239E-4    -.9835   
    4.144       0.7076E-4    -.9848       0.8296E-4    -.9835   
    4.164       0.7123E-4    -.9848       0.8353E-4    -.9835   
    4.184       0.7171E-4    -.9848       0.8411E-4    -.9834   
    4.204       0.7220E-4    -.9847       0.8469E-4    -.9834   
    4.224       0.7268E-4    -.9847       0.8527E-4    -.9834   
    4.244       0.7317E-4    -.9847       0.8585E-4    -.9834   
    4.264       0.7366E-4    -.9847       0.8644E-4    -.9834   
    4.284       0.7415E-4    -.9847       0.8703E-4    -.9834   
    4.304       0.7465E-4    -.9847       0.8762E-4    -.9833   
    4.324       0.7515E-4    -.9847       0.8822E-4    -.9833   
    4.344       0.7565E-4    -.9846       0.8882E-4    -.9833   
    4.364       0.7615E-4    -.9846       0.8943E-4    -.9833   
    4.384       0.7666E-4    -.9846       0.9003E-4    -.9833   
    4.404       0.7717E-4    -.9846       0.9065E-4    -.9832   
    4.424       0.7768E-4    -.9846       0.9126E-4    -.9832   
    4.444       0.7819E-4    -.9846       0.9188E-4    -.9832   
    4.464       0.7871E-4    -.9845       0.9250E-4    -.9832   
    4.484       0.7923E-4    -.9845       0.9312E-4    -.9832   
    4.505       0.7975E-4    -.9845       0.9375E-4    -.9832   
    4.525       0.8028E-4    -.9845       0.9438E-4    -.9831   
    4.545       0.8080E-4    -.9845       0.9502E-4    -.9831   
    4.565       0.8133E-4    -.9845       0.9566E-4    -.9831   
    4.585       0.8187E-4    -.9844       0.9630E-4    -.9831   
    4.605       0.8240E-4    -.9844       0.9695E-4    -.9831   
    4.625       0.8294E-4    -.9844       0.9760E-4    -.9830   
    4.645       0.8349E-4    -.9844       0.9825E-4    -.9830   
    4.665       0.8403E-4    -.9844       0.9891E-4    -.9830   
    4.685       0.8458E-4    -.9844       0.9957E-4    -.9830   
    4.705       0.8513E-4    -.9843       0.1002E-3    -.9830   
    4.725       0.8569E-4    -.9843       0.1009E-3    -.9829   
    4.745       0.8624E-4    -.9843       0.1016E-3    -.9829   
    4.765       0.8680E-4    -.9843       0.1023E-3    -.9829   
    4.785       0.8737E-4    -.9843       0.1029E-3    -.9829   
    4.805       0.8794E-4    -.9843       0.1036E-3    -.9829   
    4.825       0.8851E-4    -.9842       0.1043E-3    -.9828   
    4.845       0.8908E-4    -.9842       0.1050E-3    -.9828   
    4.865       0.8966E-4    -.9842       0.1057E-3    -.9828   
    4.885       0.9024E-4    -.9842       0.1064E-3    -.9828   
    4.905       0.9082E-4    -.9842       0.1071E-3    -.9828   
    4.925       0.9141E-4    -.9842       0.1078E-3    -.9827   
    4.945       0.9200E-4    -.9841       0.1085E-3    -.9827   
    4.965       0.9259E-4    -.9841       0.1093E-3    -.9827   
    4.985       0.9319E-4    -.9841       0.1100E-3    -.9827   
    5.005       0.9379E-4    -.9841       0.1107E-3    -.9826   
    5.025       0.9440E-4    -.9841       0.1115E-3    -.9826   
    5.045       0.9501E-4    -.9840       0.1122E-3    -.9826   
    5.065       0.9562E-4    -.9840       0.1129E-3    -.9826   
    5.085       0.9623E-4    -.9840       0.1137E-3    -.9826   
    5.105       0.9685E-4    -.9840       0.1144E-3    -.9825   
    5.125       0.9748E-4    -.9840       0.1152E-3    -.9825   
    5.145       0.9810E-4    -.9839       0.1160E-3    -.9825   
    5.165       0.9874E-4    -.9839       0.1167E-3    -.9825   
    5.185       0.9937E-4    -.9839       0.1175E-3    -.9824   
    5.205       0.1000E-3    -.9839       0.1183E-3    -.9824   
    5.225       0.1007E-3    -.9839       0.1191E-3    -.9824   
    5.245       0.1013E-3    -.9838       0.1199E-3    -.9824   
    5.265       0.1020E-3    -.9838       0.1206E-3    -.9823   
    5.285       0.1026E-3    -.9838       0.1214E-3    -.9823   
    5.305       0.1033E-3    -.9838       0.1222E-3    -.9823   
    5.325       0.1039E-3    -.9838       0.1231E-3    -.9823   
    5.345       0.1046E-3    -.9837       0.1239E-3    -.9822   
    5.365       0.1053E-3    -.9837       0.1247E-3    -.9822   
    5.385       0.1059E-3    -.9837       0.1255E-3    -.9822   
    5.405       0.1066E-3    -.9837       0.1264E-3    -.9822   
    5.425       0.1073E-3    -.9837       0.1272E-3    -.9821   
    5.445       0.1080E-3    -.9836       0.1280E-3    -.9821   
    5.465       0.1087E-3    -.9836       0.1289E-3    -.9821   
    5.485       0.1094E-3    -.9836       0.1297E-3    -.9821   
    5.506       0.1101E-3    -.9836       0.1306E-3    -.9820   
    5.526       0.1108E-3    -.9835       0.1315E-3    -.9820   
    5.546       0.1115E-3    -.9835       0.1323E-3    -.9820   
    5.566       0.1122E-3    -.9835       0.1332E-3    -.9820   
    5.586       0.1130E-3    -.9835       0.1341E-3    -.9819   
    5.606       0.1137E-3    -.9835       0.1350E-3    -.9819   
    5.626       0.1144E-3    -.9834       0.1359E-3    -.9819   
