#  __      __   ______   __       __  _______    ______               
# |  \    /  \ /      \ |  \     /  \|       \  /      \              
#  \$$\  /  $$|  $$$$$$\| $$\   /  $$| $$$$$$$\|  $$$$$$\             
#   \$$\/  $$ | $$__| $$| $$$\ /  $$$| $$__/ $$| $$  | $$             
#    \$$  $$  | $$    $$| $$$$\  $$$$| $$    $$| $$  | $$             
#     \$$$$   | $$$$$$$$| $$\$$ $$ $$| $$$$$$$\| $$  | $$             
#     | $$    | $$  | $$| $$ \$$$| $$| $$__/ $$| $$__/ $$             
#     | $$    | $$  | $$| $$  \$ | $$| $$    $$ \$$    $$             
#      \$$     \$$   \$$ \$$      \$$ \$$$$$$$   \$$$$$$              
#                                                                     
# Version 5.2.0 Revision 22885 Hash (prev commit) 41fc9d87d4          
#                Branch is phys-dichroism                             
#         MPI+OpenMP+SLK+SLEPC+HDF5_MPI_IO Build                      
#                http://www.yambo-code.org                            
#
# Absorption @ Q(1):  0.999999975E-5   0.00000000      0.00000000    [q->0 direction]
#
# [GEN] GF Energies                               : Teter 93(XC)
# [GEN] Green`s Function                          : Retarded
#
# [GEN] Gauge                                     : Length
# [GEN] [r,Vnl] included                          : yes
#
# DIP band range                                  :   1  10
# DIP band range limits                           :  1  2
# DIP e/h energy range                            :  -1.00000000     -1.00000000    [eV]
# RL vectors in the sum                           :   8385
# [r,Vnl] included                                : yes
# Bands ordered                                   : yes
# Direct v evaluation                             : no
# Approach used                                   : G-space v
# Dipoles computed                                : R V P
# Wavefunctions                                   : Teter 93(XC)
#
#
# [K] Identifier                                  :   9816
# [K] Dimension                                   :   9
# [K] Bands                                       :   1  10
# [K] Exchange res                                : yes
# [K] Correlation res                             : no
# [K] Kernel`s coupling                           : yes
# [K] Exchange cpl                                : yes
# [K] Correlation cpl                             : no
# [K] W interaction is bare                       : no
# [K] ALDA kernel in R-space                      : yes
# [K] RL vectors exchange                         :   4945
# [K] E/h energy range                            :  -1.00000000     -1.00000000    [eV]
# [K] Coupling range                              :   100.000000      100.000000    [o/o]
# [X] Response Kind                               : BAR
#
# Diamagnetic term                                
# Ao                                              : -0.986616015    [nel]
# A                                               :   0.00000000    [nel]
#
#    E[1] [eV]          Im(eps)            Re(eps)            Im(eps_o)          Re(eps_o)
#
        0.000000           0.41497E-09        1.014076           0.000000           1.015202
        0.020020           0.291462E-6        1.014076           0.337752E-6        1.015202
        0.040040           0.582516E-6        1.014076           0.675509E-6        1.015202
        0.060060           0.873591E-6        1.014076           0.101329E-5        1.015203
        0.080080           0.116468E-5        1.014076           0.135110E-5        1.015203
        0.100100           0.145582E-5        1.014077           0.168896E-5        1.015203
        0.120120           0.174696E-5        1.014077           0.202684E-5        1.015203
        0.140140           0.203818E-5        1.014077           0.236479E-5        1.015204
        0.160160           0.232943E-5        1.014078           0.270281E-5        1.015204
        0.180180           0.262075E-5        1.014078           0.304088E-5        1.015205
        0.200200           0.291213E-5        1.014079           0.337903E-5        1.015206
        0.220220           0.320359E-5        1.014079           0.371730E-5        1.015206
        0.240240           0.349512E-5        1.014080           0.405565E-5        1.015207
        0.260260           0.378676E-5        1.014081           0.439413E-5        1.015208
        0.280280           0.407847E-5        1.014082           0.473271E-5        1.015209
        0.300300           0.437030E-5        1.014082           0.507144E-5        1.015210
        0.320320           0.466224E-5        1.014083           0.541029E-5        1.015211
        0.340340           0.495430E-5        1.014084           0.574929E-5        1.015212
        0.360360           0.524648E-5        1.014085           0.608845E-5        1.015213
        0.380380           0.553879E-5        1.014086           0.642776E-5        1.015214
        0.400400           0.583126E-5        1.014088           0.676727E-5        1.015216
        0.420420           0.612387E-5        1.014089           0.710696E-5        1.015217
        0.440440           0.641662E-5        1.014090           0.744683E-5        1.015219
        0.460460           0.670956E-5        1.014091           0.778691E-5        1.015220
        0.480480           0.700266E-5        1.014093           0.812720E-5        1.015222
        0.500500           0.729592E-5        1.014094           0.846771E-5        1.015223
        0.520521           0.758940E-5        1.014096           0.880846E-5        1.015225
        0.540541           0.788304E-5        1.014097           0.914945E-5        1.015227
        0.560561           0.817690E-5        1.014099           0.949068E-5        1.015229
        0.580581           0.847097E-5        1.014100           0.983217E-5        1.015231
        0.600601           0.876525E-5        1.014102           0.101739E-4        1.015233
        0.620621           0.905976E-5        1.014104           0.105160E-4        1.015235
        0.640641           0.935449E-5        1.014106           0.108583E-4        1.015237
        0.660661           0.964948E-5        1.014108           0.112009E-4        1.015239
        0.680681           0.994471E-5        1.014110           0.115438E-4        1.015241
        0.700701           0.102402E-4        1.014112           0.118871E-4        1.015244
        0.720721           0.105359E-4        1.014114           0.122307E-4        1.015246
        0.740741           0.108319E-4        1.014116           0.125746E-4        1.015249
        0.760761           0.111282E-4        1.014118           0.129188E-4        1.015251
        0.780781           0.114248E-4        1.014120           0.132634E-4        1.015254
        0.800801           0.117217E-4        1.014123           0.136084E-4        1.015257
        0.820821           0.120188E-4        1.014125           0.139537E-4        1.015259
        0.840841           0.123163E-4        1.014127           0.142995E-4        1.015262
        0.860861           0.126141E-4        1.014130           0.146456E-4        1.015265
        0.880881           0.129122E-4        1.014132           0.149921E-4        1.015268
        0.900901           0.132107E-4        1.014135           0.153390E-4        1.015271
        0.920921           0.135095E-4        1.014138           0.156864E-4        1.015274
        0.940941           0.138086E-4        1.014140           0.160342E-4        1.015277
        0.960961           0.141081E-4        1.014143           0.163824E-4        1.015280
        0.980981           0.144080E-4        1.014146           0.167311E-4        1.015284
        1.001001           0.147082E-4        1.014149           0.170802E-4        1.015287
        1.021021           0.150088E-4        1.014152           0.174299E-4        1.015291
        1.041041           0.153098E-4        1.014155           0.177799E-4        1.015294
        1.061061           0.156112E-4        1.014158           0.181306E-4        1.015298
        1.081081           0.159130E-4        1.014161           0.184816E-4        1.015301
        1.101101           0.162153E-4        1.014165           0.188332E-4        1.015305
        1.121121           0.165179E-4        1.014168           0.191854E-4        1.015309
        1.141141           0.168209E-4        1.014171           0.195380E-4        1.015313
        1.161161           0.171244E-4        1.014175           0.198912E-4        1.015317
        1.181181           0.174284E-4        1.014178           0.202450E-4        1.015321
        1.201201           0.177328E-4        1.014182           0.205993E-4        1.015325
        1.221221           0.180377E-4        1.014185           0.209542E-4        1.015329
        1.241241           0.183430E-4        1.014189           0.213097E-4        1.015333
        1.261261           0.186488E-4        1.014192           0.216657E-4        1.015338
        1.281281           0.189551E-4        1.014196           0.220224E-4        1.015342
        1.301301           0.192619E-4        1.014200           0.223797E-4        1.015346
        1.321321           0.195692E-4        1.014204           0.227376E-4        1.015351
        1.341341           0.198770E-4        1.014208           0.230961E-4        1.015356
        1.361361           0.201853E-4        1.014212           0.234553E-4        1.015360
        1.381381           0.204942E-4        1.014216           0.238152E-4        1.015365
        1.401401           0.208036E-4        1.014220           0.241757E-4        1.015370
        1.421421           0.211135E-4        1.014224           0.245369E-4        1.015375
        1.441441           0.214240E-4        1.014229           0.248988E-4        1.015380
        1.461461           0.217350E-4        1.014233           0.252614E-4        1.015385
        1.481481           0.220467E-4        1.014237           0.256247E-4        1.015390
        1.501501           0.223589E-4        1.014242           0.259887E-4        1.015395
        1.521521           0.226717E-4        1.014246           0.263535E-4        1.015400
        1.541541           0.229851E-4        1.014251           0.267190E-4        1.015405
        1.561561           0.232991E-4        1.014255           0.270853E-4        1.015411
        1.581581           0.236137E-4        1.014260           0.274523E-4        1.015416
        1.601601           0.239290E-4        1.014265           0.278201E-4        1.015422
        1.621622           0.242449E-4        1.014270           0.281887E-4        1.015427
        1.641642           0.245614E-4        1.014275           0.285581E-4        1.015433
        1.661662           0.248786E-4        1.014279           0.289283E-4        1.015439
        1.681682           0.251964E-4        1.014284           0.292993E-4        1.015445
        1.701702           0.255149E-4        1.014290           0.296712E-4        1.015450
        1.721722           0.258341E-4        1.014295           0.300439E-4        1.015457
        1.741742           0.261540E-4        1.014300           0.304175E-4        1.015463
        1.761762           0.264746E-4        1.014305           0.307919E-4        1.015469
        1.781782           0.267959E-4        1.014311           0.311673E-4        1.015475
        1.801802           0.271179E-4        1.014316           0.315435E-4        1.015481
        1.821822           0.274406E-4        1.014321           0.319206E-4        1.015488
        1.841842           0.277641E-4        1.014327           0.322987E-4        1.015494
        1.861862           0.280883E-4        1.014333           0.326776E-4        1.015500
        1.881882           0.284133E-4        1.014338           0.330576E-4        1.015507
        1.901902           0.287390E-4        1.014344           0.334384E-4        1.015514
        1.921922           0.290655E-4        1.014350           0.338203E-4        1.015520
        1.941942           0.293928E-4        1.014356           0.342031E-4        1.015527
        1.961962           0.297209E-4        1.014362           0.345869E-4        1.015534
        1.981982           0.300498E-4        1.014367           0.349717E-4        1.015541
        2.002002           0.303795E-4        1.014373           0.353575E-4        1.015548
        2.022022           0.307101E-4        1.014380           0.357444E-4        1.015555
        2.042042           0.310415E-4        1.014386           0.361323E-4        1.015562
        2.062062           0.313737E-4        1.014392           0.365212E-4        1.015570
        2.082082           0.317067E-4        1.014398           0.369113E-4        1.015577
        2.102102           0.320407E-4        1.014405           0.373024E-4        1.015584
        2.122122           0.323755E-4        1.014411           0.376946E-4        1.015592
        2.142142           0.327112E-4        1.014418           0.380879E-4        1.015599
        2.162162           0.330478E-4        1.014424           0.384823E-4        1.015607
        2.182182           0.333853E-4        1.014431           0.388779E-4        1.015615
        2.202202           0.337238E-4        1.014438           0.392746E-4        1.015623
        2.222222           0.340631E-4        1.014444           0.396724E-4        1.015631
        2.242242           0.344034E-4        1.014451           0.400715E-4        1.015639
        2.262262           0.347446E-4        1.014458           0.404717E-4        1.015647
        2.282282           0.350868E-4        1.014465           0.408731E-4        1.015655
        2.302302           0.354300E-4        1.014472           0.412758E-4        1.015663
        2.322322           0.357742E-4        1.014479           0.416797E-4        1.015671
        2.342342           0.361193E-4        1.014487           0.420848E-4        1.015680
        2.362362           0.364655E-4        1.014494           0.424912E-4        1.015688
        2.382382           0.368127E-4        1.014501           0.428988E-4        1.015697
        2.402402           0.371609E-4        1.014508           0.433077E-4        1.015705
        2.422422           0.375101E-4        1.014516           0.437180E-4        1.015714
        2.442442           0.378604E-4        1.014524           0.441295E-4        1.015723
        2.462462           0.382118E-4        1.014531           0.445424E-4        1.015732
        2.482482           0.385642E-4        1.014539           0.449566E-4        1.015741
        2.502502           0.389177E-4        1.014547           0.453722E-4        1.015750
        2.522522           0.392723E-4        1.014554           0.457891E-4        1.015759
        2.542542           0.396281E-4        1.014562           0.462075E-4        1.015768
        2.562562           0.399849E-4        1.014570           0.466272E-4        1.015777
        2.582582           0.403429E-4        1.014578           0.470484E-4        1.015787
        2.602602           0.407020E-4        1.014586           0.474710E-4        1.015796
        2.622622           0.410623E-4        1.014595           0.478951E-4        1.015806
        2.642642           0.414238E-4        1.014603           0.483206E-4        1.015815
        2.662663           0.417864E-4        1.014611           0.487476E-4        1.015825
        2.682683           0.421502E-4        1.014620           0.491761E-4        1.015835
        2.702703           0.425153E-4        1.014628           0.496061E-4        1.015845
        2.722723           0.428815E-4        1.014637           0.500377E-4        1.015855
        2.742743           0.432490E-4        1.014645           0.504708E-4        1.015865
        2.762763           0.436177E-4        1.014654           0.509054E-4        1.015875
        2.782783           0.439877E-4        1.014663           0.513416E-4        1.015885
        2.802803           0.443590E-4        1.014672           0.517795E-4        1.015895
        2.822823           0.447315E-4        1.014681           0.522189E-4        1.015906
        2.842843           0.451054E-4        1.014689           0.526600E-4        1.015916
        2.862863           0.454805E-4        1.014699           0.531027E-4        1.015927
        2.882883           0.458570E-4        1.014708           0.535471E-4        1.015938
        2.902903           0.462348E-4        1.014717           0.539932E-4        1.015948
        2.922923           0.466140E-4        1.014726           0.544409E-4        1.015959
        2.942943           0.469946E-4        1.014736           0.548904E-4        1.015970
        2.962963           0.473765E-4        1.014745           0.553416E-4        1.015981
        2.982983           0.477598E-4        1.014755           0.557946E-4        1.015992
        3.003003           0.481445E-4        1.014764           0.562494E-4        1.016004
        3.023023           0.485306E-4        1.014774           0.567059E-4        1.016015
        3.043043           0.489182E-4        1.014784           0.571642E-4        1.016026
        3.063063           0.493072E-4        1.014793           0.576244E-4        1.016038
        3.083083           0.496977E-4        1.014803           0.580864E-4        1.016049
        3.103103           0.500897E-4        1.014813           0.585503E-4        1.016061
        3.123123           0.504832E-4        1.014823           0.590160E-4        1.016073
        3.143143           0.508781E-4        1.014833           0.594837E-4        1.016085
        3.163163           0.512746E-4        1.014844           0.599532E-4        1.016097
        3.183183           0.516727E-4        1.014854           0.604248E-4        1.016109
        3.203203           0.520723E-4        1.014864           0.608982E-4        1.016121
        3.223223           0.524734E-4        1.014875           0.613737E-4        1.016133
        3.243243           0.528762E-4        1.014885           0.618512E-4        1.016145
        3.263263           0.532805E-4        1.014896           0.623306E-4        1.016158
        3.283283           0.536865E-4        1.014907           0.628122E-4        1.016170
        3.303303           0.540941E-4        1.014917           0.632957E-4        1.016183
        3.323323           0.545034E-4        1.014928           0.637814E-4        1.016196
        3.343343           0.549143E-4        1.014939           0.642692E-4        1.016208
        3.363363           0.553269E-4        1.014950           0.647590E-4        1.016221
        3.383383           0.557412E-4        1.014961           0.652511E-4        1.016234
        3.403403           0.561572E-4        1.014973           0.657453E-4        1.016248
        3.423423           0.565749E-4        1.014984           0.662417E-4        1.016261
        3.443443           0.569944E-4        1.014995           0.667403E-4        1.016274
        3.463463           0.574157E-4        1.015007           0.672411E-4        1.016287
        3.483483           0.578387E-4        1.015018           0.677442E-4        1.016301
        3.503503           0.582636E-4        1.015030           0.682496E-4        1.016315
        3.523524           0.586902E-4        1.015042           0.687572E-4        1.016328
        3.543543           0.591187E-4        1.015053           0.692672E-4        1.016342
        3.563564           0.595491E-4        1.015065           0.697796E-4        1.016356
        3.583583           0.599813E-4        1.015077           0.702943E-4        1.016370
        3.603603           0.604154E-4        1.015089           0.708114E-4        1.016384
